QMG 220  (h6 Triton.vi)	Device:	EIMS  (PTM28611-44508749)																											
MID	ParaFile:	Duke ratios.rcp																											
																													
																													
																													
	UTC offset (s)	0																											
All masses (amu) are displayed in (A)																													
																													
cycle #	time	18.03	28.03	32.00	40.00	44.06	45.06	TP	N2/Ar	O2/Ar	N2/O2	Valve	ID	S#	O2 (uM)	O2 Sat (%)	Temp (C)	Calphase (C)	TCphase (C)	C1 (C)	C2 (C)	C1amp (mV)	C2amp (mV)	Temp (mV)	inlet	sock	outlet	MS	flow
0.000000000	42887.238632465	7.192040741E-9	6.072368137E-7	1.155384197E-7	5.884609244E-9	3.538691007E-10	4.601180548E-12	5.297221378E-6	103.190677326	19.634000309	5.255713339	1.000000000	4835.000000000	159.000000000	236.206000000	84.992000000	21.026000000	29.551000000	30.578000000	35.198000000	4.620000000	689.900000000	601.700000000	123.500000000	19.992248535	18.454803467	20.135131836	46.220214844	99.655578769
1.000000000	42887.238647581	7.461237850E-9	6.219638067E-7	1.166685806E-7	5.904912115E-9	3.541523463E-10	4.405369299E-12	5.297221378E-6	105.329900697	19.757886029	5.331030888	1.000000000	4835.000000000	159.000000000	236.206000000	84.992000000	21.026000000	29.551000000	30.578000000	35.198000000	4.620000000	689.900000000	601.700000000	123.500000000	19.991455078	18.448486328	20.134429932	46.218017578	100.656321303
2.000000000	42887.238662454	7.536195668E-9	6.252154208E-7	1.170418358E-7	5.896418465E-9	3.561220763E-10	4.412499012E-12	5.272462204E-6	106.033081696	19.849648813	5.341811469	1.000000000	4835.000000000	159.000000000	236.206000000	84.992000000	21.026000000	29.551000000	30.578000000	35.198000000	4.620000000	689.900000000	601.700000000	123.500000000	19.990112305	18.448791504	20.135131836	46.220092773	99.849719612
3.000000000	42887.238677292	7.549509462E-9	6.230808935E-7	1.165550501E-7	5.871425124E-9	3.530873094E-10	4.403728250E-12	5.272462204E-6	106.120895762	19.851236727	5.345807781	1.000000000	4835.000000000	159.000000000	236.206000000	84.992000000	21.026000000	29.551000000	30.578000000	35.198000000	4.620000000	689.900000000	601.700000000	123.500000000	19.990509033	18.449707031	20.131469727	46.217285156	100.146143239
4.000000000	42887.238692199	7.543950353E-9	6.231443308E-7	1.166997521E-7	5.871898967E-9	3.531865356E-10	4.393247485E-12	5.297221378E-6	106.123135684	19.874277936	5.339722833	1.000000000	4835.000000000	159.000000000	233.684000000	83.968000000	20.955000000	29.700000000	30.712000000	35.334000000	4.622000000	694.000000000	601.900000000	125.800000000	19.990875244	18.441284180	20.133819580	46.219635010	101.284879375
5.000000000	42887.238707095	7.550051251E-9	6.252699336E-7	1.170684101E-7	5.867240471E-9	3.543343952E-10	4.487886191E-12	5.297221378E-6	106.569678995	19.952891082	5.341064538	1.000000000	4835.000000000	159.000000000	233.684000000	83.968000000	20.955000000	29.700000000	30.712000000	35.334000000	4.622000000	694.000000000	601.900000000	125.800000000	19.990478516	18.423034668	20.133605957	46.219055176	100.219732594
6.000000000	42887.238721991	7.555978954E-9	6.247325928E-7	1.171907940E-7	5.867264896E-9	3.545541638E-10	4.369006459E-12	5.297221378E-6	106.477652505	19.973666782	5.330901615	1.000000000	4835.000000000	159.000000000	233.684000000	83.968000000	20.955000000	29.700000000	30.712000000	35.334000000	4.622000000	694.000000000	601.900000000	125.800000000	19.990844727	18.414276123	20.132415771	46.218719482	99.714803890
7.000000000	42887.238736887	7.574350036E-9	6.260033842E-7	1.174133573E-7	5.872377251E-9	3.546264671E-10	4.450589203E-12	5.322102879E-6	106.601357077	19.994178207	5.331619833	1.000000000	4835.000000000	159.000000000	233.684000000	83.968000000	20.955000000	29.700000000	30.712000000	35.334000000	4.622000000	694.000000000	601.900000000	125.800000000	19.990722656	18.407409668	20.133422852	46.220336914	99.710405311
8.000000000	42887.238751713	7.565192917E-9	6.286948633E-7	1.180749791E-7	5.887945242E-9	3.584808839E-10	4.641494220E-12	5.297221378E-6	106.776615167	20.053681593	5.324539271	1.000000000	4835.000000000	159.000000000	233.684000000	83.968000000	20.955000000	29.700000000	30.712000000	35.334000000	4.622000000	694.000000000	601.900000000	125.800000000	19.991302490	18.400604248	20.134490967	46.218719482	99.723941647
9.000000000	42887.238766539	7.569464167E-9	6.279459512E-7	1.181339613E-7	5.883535881E-9	3.581623331E-10	4.550116360E-12	5.322102879E-6	106.729348468	20.078735589	5.315541309	1.000000000	4835.000000000	159.000000000	233.684000000	83.968000000	20.955000000	29.700000000	30.712000000	35.334000000	4.622000000	694.000000000	601.900000000	125.800000000	19.991516113	18.386688232	20.135314941	46.215515137	100.077369373
10.000000000	42887.238781481	7.586622885E-9	6.272536552E-7	1.182603526E-7	5.873339592E-9	3.578426999E-10	4.479866998E-12	5.322102879E-6	106.796762790	20.135112360	5.304006299	1.000000000	4835.000000000	159.000000000	233.684000000	83.968000000	20.955000000	29.700000000	30.712000000	35.334000000	4.622000000	694.000000000	601.900000000	125.800000000	19.991302490	18.380798340	20.135253906	46.218902588	100.228355242
11.000000000	42887.238796319	7.602368512E-9	6.267967478E-7	1.173965600E-7	5.863531882E-9	3.573126239E-10	4.458702938E-12	5.322102879E-6	106.897474155	20.021475518	5.339140667	1.000000000	4835.000000000	159.000000000	233.684000000	83.968000000	20.955000000	29.700000000	30.712000000	35.334000000	4.622000000	694.000000000	601.900000000	125.800000000	19.992553711	18.373535156	20.135772705	46.220214844	100.036612047
12.000000000	42887.238811238	7.609753716E-9	6.325059871E-7	1.127417448E-7	5.912998535E-9	3.547694638E-10	4.475063983E-12	5.322102879E-6	106.968737329	19.066763531	5.610219960	1.000000000	4835.000000000	159.000000000	233.684000000	83.968000000	20.955000000	29.700000000	30.712000000	35.334000000	4.622000000	694.000000000	601.900000000	125.800000000	19.992767334	18.365722656	20.134216309	46.222290039	99.136108476
13.000000000	42887.238826123	7.614760378E-9	6.391312581E-7	1.090477681E-7	5.921220403E-9	3.506644974E-10	4.339244242E-12	5.322102879E-6	107.939109618	18.416434574	5.861020991	1.000000000	4835.000000000	159.000000000	233.684000000	83.968000000	20.955000000	29.700000000	30.712000000	35.334000000	4.622000000	694.000000000	601.900000000	125.800000000	19.992645264	18.345336914	20.133636475	46.221557617	100.131819276
14.000000000	42887.238840949	7.604016083E-9	6.389782357E-7	1.069201261E-7	5.921100055E-9	3.514355473E-10	4.420609712E-12	5.322102879E-6	107.915459923	18.057476668	5.976220372	1.000000000	4835.000000000	159.000000000	233.684000000	83.968000000	20.955000000	29.700000000	30.712000000	35.334000000	4.622000000	694.000000000	601.900000000	125.800000000	19.991241455	18.338317871	20.134674072	46.221801758	100.331440650
15.000000000	42887.238855822	7.596995921E-9	6.409041475E-7	1.061289581E-7	5.915402834E-9	3.500466306E-10	4.434565562E-12	5.297221378E-6	108.344970831	17.941121009	6.038918682	1.000000000	4835.000000000	159.000000000	233.684000000	83.968000000	20.955000000	29.700000000	30.712000000	35.334000000	4.622000000	694.000000000	601.900000000	125.800000000	19.991729736	18.329162598	20.132598877	46.222106934	100.338385887
16.000000000	42887.238870694	7.591627771E-9	6.407876185E-7	1.057902139E-7	5.924543078E-9	3.491869016E-10	4.416667986E-12	5.297221378E-6	108.158149928	17.856265458	6.057154010	1.000000000	4835.000000000	159.000000000	233.684000000	83.968000000	20.955000000	29.700000000	30.712000000	35.334000000	4.622000000	694.000000000	601.900000000	125.800000000	19.991699219	18.321563721	20.134552002	46.221801758	100.348525745
17.000000000	42887.238885556	7.588882411E-9	6.394927823E-7	1.054358734E-7	5.916640955E-9	3.497741818E-10	4.597957431E-12	5.347095339E-6	108.083756840	17.820225051	6.065229621	1.000000000	4835.000000000	159.000000000	233.684000000	83.968000000	20.955000000	29.700000000	30.712000000	35.334000000	4.622000000	694.000000000	601.900000000	125.800000000	19.991271973	18.308959961	20.135223389	46.223022461	101.085267425
18.000000000	42887.238900475	7.584607609E-9	6.443108873E-7	1.061747668E-7	5.945986814E-9	3.503727586E-10	4.473564314E-12	5.372211490E-6	108.360631710	17.856542585	6.068399366	1.000000000	4835.000000000	159.000000000	233.684000000	83.968000000	20.955000000	29.700000000	30.712000000	35.334000000	4.622000000	694.000000000	601.900000000	125.800000000	19.991394043	18.298583984	20.135131836	46.221984863	99.423553700
19.000000000	42887.238915359	7.602491081E-9	6.460822988E-7	1.064934168E-7	5.954836624E-9	3.503997370E-10	4.479003973E-12	5.347095339E-6	108.497065426	17.883516120	6.066875479	1.000000000	4835.000000000	159.000000000	233.684000000	83.968000000	20.955000000	29.700000000	30.712000000	35.334000000	4.622000000	694.000000000	601.900000000	125.800000000	19.990417480	18.291595459	20.135772705	46.225799561	100.282710908
20.000000000	42887.238930266	7.615121866E-9	6.445507097E-7	1.064085993E-7	5.944527093E-9	3.491932854E-10	4.327071253E-12	5.347095339E-6	108.427583832	17.900263150	6.057317869	1.000000000	4835.000000000	159.000000000	233.684000000	83.968000000	20.955000000	29.700000000	30.712000000	35.334000000	4.622000000	694.000000000	601.900000000	125.800000000	19.991851807	18.282897949	20.134796143	46.221099854	100.182669342
21.000000000	42887.238945150	7.612929842E-9	6.437645652E-7	1.065114290E-7	5.941154679E-9	3.501264279E-10	4.333252940E-12	5.322102879E-6	108.356809401	17.927732025	6.044089082	1.000000000	4835.000000000	159.000000000	233.684000000	83.968000000	20.955000000	29.700000000	30.712000000	35.334000000	4.622000000	694.000000000	601.900000000	125.800000000	19.991241455	18.273559570	20.136413574	46.222442627	99.461457389
22.000000000	42887.238960000	7.631850707E-9	6.410654123E-7	1.063209467E-7	5.918343593E-9	3.496511414E-10	4.263289374E-12	5.322102879E-6	108.318383723	17.964645858	6.029530700	1.000000000	4835.000000000	159.000000000	233.684000000	83.968000000	20.955000000	29.700000000	30.712000000	35.334000000	4.622000000	694.000000000	601.900000000	125.800000000	19.989929199	18.264068604	20.135711670	46.220520020	100.413699772
23.000000000	42887.238974826	7.626849374E-9	6.422511660E-7	1.067501145E-7	5.920468560E-9	3.500283674E-10	4.450472543E-12	5.297221378E-6	108.479786614	18.030686836	6.016397911	1.000000000	4835.000000000	159.000000000	233.684000000	83.968000000	20.955000000	29.700000000	30.712000000	35.334000000	4.622000000	694.000000000	601.900000000	125.800000000	19.991394043	18.268066406	20.135681152	46.224456787	100.567352536
24.000000000	42887.238989757	7.628130128E-9	6.377645150E-7	1.063160866E-7	5.873079800E-9	3.471834764E-10	4.430913535E-12	5.297221378E-6	108.591154329	18.102271758	5.998758376	1.000000000	4835.000000000	159.000000000	233.684000000	83.968000000	20.955000000	29.700000000	30.712000000	35.334000000	4.622000000	694.000000000	601.900000000	125.800000000	19.990814209	18.273468018	20.136047363	46.223907471	100.474454103
25.000000000	42887.239004676	7.603346397E-9	6.372666235E-7	1.065022630E-7	5.875126607E-9	3.473683841E-10	4.312344318E-12	5.322102879E-6	108.468577114	18.127654113	5.983597019	1.000000000	4835.000000000	159.000000000	233.684000000	83.968000000	20.955000000	29.700000000	30.712000000	35.334000000	4.622000000	694.000000000	601.900000000	125.800000000	19.992492676	18.281433105	20.137390137	46.220520020	99.733604898
26.000000000	42887.239019560	7.598095486E-9	6.390056910E-7	1.070656879E-7	5.885852250E-9	3.478728972E-10	4.345720398E-12	5.322102879E-6	108.566383233	18.190345820	5.968351801	1.000000000	4835.000000000	159.000000000	233.684000000	83.968000000	20.955000000	29.700000000	30.712000000	35.334000000	4.622000000	694.000000000	601.900000000	125.800000000	19.991241455	18.297668457	20.135070801	46.221801758	99.816769191
27.000000000	42887.239034387	7.607312114E-9	6.384737503E-7	1.071432223E-7	5.877822229E-9	3.480059296E-10	4.359764719E-12	5.322102879E-6	108.624202204	18.228387678	5.959068027	1.000000000	4835.000000000	159.000000000	229.768000000	82.460000000	20.892000000	29.917000000	30.905000000	35.525000000	4.620000000	699.900000000	602.100000000	127.900000000	19.991485596	18.297424316	20.137908936	46.213897705	99.851597766
28.000000000	42887.239049294	7.609266994E-9	6.384477160E-7	1.075631459E-7	5.889124743E-9	3.476212929E-10	4.436817667E-12	5.322102879E-6	108.411307935	18.264708362	5.935561947	1.000000000	4835.000000000	159.000000000	229.768000000	82.460000000	20.892000000	29.917000000	30.905000000	35.525000000	4.620000000	699.900000000	602.100000000	127.900000000	19.991729736	18.300720215	20.137268066	46.225524902	98.858268115
29.000000000	42887.239064120	7.615613029E-9	6.388206657E-7	1.080640004E-7	5.907633494E-9	3.492693357E-10	4.375041995E-12	5.322102879E-6	108.134782972	18.292265513	5.911503028	1.000000000	4835.000000000	159.000000000	229.768000000	82.460000000	20.892000000	29.917000000	30.905000000	35.525000000	4.620000000	699.900000000	602.100000000	127.900000000	19.990966797	18.300994873	20.137298584	46.215209961	99.894182244
30.000000000	42887.239078947	7.633135901E-9	6.390624208E-7	1.080948380E-7	5.880385512E-9	3.478628496E-10	4.377990592E-12	5.322102879E-6	108.676959949	18.382270644	5.912053089	1.000000000	4835.000000000	159.000000000	229.768000000	82.460000000	20.892000000	29.917000000	30.905000000	35.525000000	4.620000000	699.900000000	602.100000000	127.900000000	19.992431641	18.306152344	20.137725830	46.218902588	99.209093756
31.000000000	42887.239093831	7.635697408E-9	6.370108281E-7	1.082175416E-7	5.874336573E-9	3.501007262E-10	4.414160877E-12	5.322102879E-6	108.439620406	18.422087372	5.886391603	1.000000000	4835.000000000	159.000000000	229.768000000	82.460000000	20.892000000	29.917000000	30.905000000	35.525000000	4.620000000	699.900000000	602.100000000	127.900000000	19.990692139	18.303894043	20.139465332	46.225799561	100.359004854
32.000000000	42887.239108704	7.653092382E-9	6.380441278E-7	1.085505161E-7	5.876774622E-9	3.478765886E-10	4.281988826E-12	5.322102879E-6	108.570460625	18.471104152	5.877854390	1.000000000	4835.000000000	159.000000000	229.768000000	82.460000000	20.892000000	29.917000000	30.905000000	35.525000000	4.620000000	699.900000000	602.100000000	127.900000000	19.992523193	18.299285889	20.136749268	46.219787598	100.464634650
33.000000000	42887.239123530	7.623731868E-9	6.373367114E-7	1.088041373E-7	5.870607556E-9	3.495703171E-10	4.349025914E-12	5.322102879E-6	108.564012390	18.533709880	5.857651441	1.000000000	4835.000000000	159.000000000	229.768000000	82.460000000	20.892000000	29.917000000	30.905000000	35.525000000	4.620000000	699.900000000	602.100000000	127.900000000	19.993774414	18.305603027	20.140625000	46.225646973	100.106102110
34.000000000	42887.239138426	7.622208642E-9	6.348325883E-7	1.087147226E-7	5.849471130E-9	3.497098167E-10	4.340452910E-12	5.297221378E-6	108.528202670	18.585393474	5.839435298	1.000000000	4835.000000000	159.000000000	229.768000000	82.460000000	20.892000000	29.917000000	30.905000000	35.525000000	4.620000000	699.900000000	602.100000000	127.900000000	19.991210937	18.309753418	20.139343262	46.219635010	99.989277197
35.000000000	42887.239153310	7.615491349E-9	6.347648309E-7	1.090413377E-7	5.842709427E-9	3.473442645E-10	4.405796908E-12	5.322102879E-6	108.642204239	18.662803463	5.821322850	1.000000000	4835.000000000	159.000000000	229.768000000	82.460000000	20.892000000	29.917000000	30.905000000	35.525000000	4.620000000	699.900000000	602.100000000	127.900000000	19.992614746	18.322448730	20.139251709	46.222869873	100.477846621
36.000000000	42887.239168310	7.608898400E-9	6.365237368E-7	1.096575488E-7	5.858024288E-9	3.504153911E-10	4.436802922E-12	5.322102879E-6	108.658432528	18.719203511	5.804650420	1.000000000	4835.000000000	159.000000000	229.768000000	82.460000000	20.892000000	29.917000000	30.905000000	35.525000000	4.620000000	699.900000000	602.100000000	127.900000000	19.992950439	18.327636719	20.137603760	46.220825195	99.666867159
37.000000000	42887.239183183	7.630386989E-9	6.349626460E-7	1.097198137E-7	5.847351936E-9	3.491650302E-10	4.436814631E-12	5.297221378E-6	108.589777556	18.764017436	5.787128366	1.000000000	4835.000000000	159.000000000	229.768000000	82.460000000	20.892000000	29.917000000	30.905000000	35.525000000	4.620000000	699.900000000	602.100000000	127.900000000	19.993896484	18.327087402	20.138488770	46.218902588	100.242735746
38.000000000	42887.239198090	7.635390986E-9	6.338399885E-7	1.097561224E-7	5.832760053E-9	3.491578138E-10	4.389801456E-12	5.297221378E-6	108.668963367	18.817184561	5.774985254	1.000000000	4835.000000000	159.000000000	229.768000000	82.460000000	20.892000000	29.917000000	30.905000000	35.525000000	4.620000000	699.900000000	602.100000000	127.900000000	19.992889404	18.325805664	20.138183594	46.218719482	100.166658545
39.000000000	42887.239212917	7.617079412E-9	6.325173558E-7	1.098882905E-7	5.824202010E-9	3.497750700E-10	4.363670449E-12	5.297221378E-6	108.601548296	18.867527309	5.756003239	1.000000000	4835.000000000	159.000000000	229.768000000	82.460000000	20.892000000	29.917000000	30.905000000	35.525000000	4.620000000	699.900000000	602.100000000	127.900000000	19.992645264	18.325469971	20.139251709	46.219635010	100.300832605
40.000000000	42887.239227824	7.610672093E-9	6.318764463E-7	1.100726337E-7	5.819139837E-9	3.492256206E-10	4.381166003E-12	5.297221378E-6	108.585884515	18.915619278	5.740540815	1.000000000	4835.000000000	159.000000000	229.768000000	82.460000000	20.892000000	29.917000000	30.905000000	35.525000000	4.620000000	699.900000000	602.100000000	127.900000000	19.993560791	18.329772949	20.140350342	46.217590332	100.111115497
41.000000000	42887.239242720	7.621051346E-9	6.320646548E-7	1.103653489E-7	5.809091430E-9	3.495238265E-10	4.324632666E-12	5.297221378E-6	108.806112357	18.998728147	5.727020857	1.000000000	4835.000000000	159.000000000	229.768000000	82.460000000	20.892000000	29.917000000	30.905000000	35.525000000	4.620000000	699.900000000	602.100000000	127.900000000	19.992675781	18.333679199	20.138061523	46.223022461	100.190481555
42.000000000	42887.239257616	7.621600240E-9	6.314982102E-7	1.105502534E-7	5.806882974E-9	3.495449208E-10	4.400407556E-12	5.272462204E-6	108.749946046	19.037795988	5.712318070	1.000000000	4835.000000000	159.000000000	229.768000000	82.460000000	20.892000000	29.917000000	30.905000000	35.525000000	4.620000000	699.900000000	602.100000000	127.900000000	19.993652344	18.330596924	20.138122559	46.218017578	99.640952519
43.000000000	42887.239272500	7.611096642E-9	6.314791676E-7	1.109870311E-7	5.822249793E-9	3.509587343E-10	4.441585988E-12	5.322102879E-6	108.459648767	19.062567746	5.689666272	1.000000000	4835.000000000	159.000000000	229.768000000	82.460000000	20.892000000	29.917000000	30.905000000	35.525000000	4.620000000	699.900000000	602.100000000	127.900000000	19.993560791	18.325317383	20.138519287	46.218627930	99.946974929
44.000000000	42887.239287338	7.658774059E-9	6.344875487E-7	1.116630983E-7	5.825493865E-9	3.512498348E-10	4.490914151E-12	5.297221378E-6	108.915666795	19.168005479	5.682159623	1.000000000	4835.000000000	159.000000000	229.768000000	82.460000000	20.892000000	29.917000000	30.905000000	35.525000000	4.620000000	699.900000000	602.100000000	127.900000000	19.991271973	18.323242187	20.139160156	46.215698242	99.907348789
45.000000000	42887.239302176	7.620686304E-9	6.316016652E-7	1.115297081E-7	5.807783587E-9	3.509579294E-10	4.347872323E-12	5.297221378E-6	108.750895361	19.203488983	5.663080051	1.000000000	4835.000000000	159.000000000	229.768000000	82.460000000	20.892000000	29.917000000	30.905000000	35.525000000	4.620000000	699.900000000	602.100000000	127.900000000	19.993347168	18.328094482	20.140533447	46.220214844	100.246269618
46.000000000	42887.239317002	7.642660727E-9	6.324607966E-7	1.119786930E-7	5.816166659E-9	3.515419345E-10	4.483438794E-12	5.297221378E-6	108.741862753	19.253006240	5.648045889	1.000000000	4835.000000000	159.000000000	229.768000000	82.460000000	20.892000000	29.917000000	30.905000000	35.525000000	4.620000000	699.900000000	602.100000000	127.900000000	19.991699219	18.336975098	20.139862061	46.221099854	99.872607796
47.000000000	42887.239331898	7.647726896E-9	6.288981922E-7	1.115892161E-7	5.780307788E-9	3.512168334E-10	4.461200073E-12	5.297221378E-6	108.800121941	19.305064744	5.635833051	1.000000000	4835.000000000	159.000000000	229.768000000	82.460000000	20.892000000	29.917000000	30.905000000	35.525000000	4.620000000	699.900000000	602.100000000	127.900000000	19.992645264	18.349426270	20.139678955	46.216979980	100.074702478
48.000000000	42887.239346817	7.626418608E-9	6.298199082E-7	1.122036721E-7	5.801736869E-9	3.528558556E-10	4.402096309E-12	5.297221378E-6	108.557130818	19.339669253	5.613184455	1.000000000	4835.000000000	159.000000000	229.768000000	82.460000000	20.892000000	29.917000000	30.905000000	35.525000000	4.620000000	699.900000000	602.100000000	127.900000000	19.993835449	18.357635498	20.139556885	46.214050293	99.882387823
49.000000000	42887.239361713	7.628863763E-9	6.297731261E-7	1.124340443E-7	5.797037073E-9	3.520805592E-10	4.530739933E-12	5.297221378E-6	108.637070663	19.395088023	5.601267214	1.000000000	4835.000000000	159.000000000	229.768000000	82.460000000	20.892000000	29.917000000	30.905000000	35.525000000	4.620000000	699.900000000	602.100000000	127.900000000	19.993133545	18.365417480	20.138793945	46.217864990	100.643872649
50.000000000	42887.239376644	7.633198962E-9	6.302706197E-7	1.127264753E-7	5.797732516E-9	3.526844372E-10	4.354450394E-12	5.297221378E-6	108.709847845	19.443200415	5.591149889	1.000000000	4835.000000000	159.000000000	229.768000000	82.460000000	20.892000000	29.917000000	30.905000000	35.525000000	4.620000000	699.900000000	602.100000000	127.900000000	19.992218018	18.370483398	20.104034424	46.222290039	99.912701042
51.000000000	42887.239391539	7.613047970E-9	6.304219369E-7	1.131968048E-7	5.812088588E-9	3.541143212E-10	4.532390088E-12	5.347095339E-6	108.467365442	19.476097637	5.569255580	1.000000000	4835.000000000	159.000000000	224.258000000	80.386000000	20.832000000	30.217000000	31.172000000	35.790000000	4.617000000	707.500000000	602.400000000	129.900000000	19.990722656	18.378662109	20.107604980	46.211700439	100.218347316
52.000000000	42887.239406412	7.628920606E-9	6.344701546E-7	1.141350481E-7	5.843999507E-9	3.559427475E-10	4.473762073E-12	5.347095339E-6	108.567797435	19.530297351	5.558942370	1.000000000	4835.000000000	159.000000000	224.258000000	80.386000000	20.832000000	30.217000000	31.172000000	35.790000000	4.617000000	707.500000000	602.400000000	129.900000000	19.990478516	18.401397705	20.166259766	46.212890625	99.888129332
53.000000000	42887.239421319	7.651018485E-9	6.317683301E-7	1.138145294E-7	5.807462511E-9	3.553363159E-10	4.478228986E-12	5.322102879E-6	108.785606263	19.597979176	5.550858345	1.000000000	4835.000000000	159.000000000	224.258000000	80.386000000	20.832000000	30.217000000	31.172000000	35.790000000	4.617000000	707.500000000	602.400000000	129.900000000	19.992187500	18.416198730	20.160736084	46.221099854	100.123573575
54.000000000	42887.239436296	7.697716242E-9	6.332082876E-7	1.141188548E-7	5.808304504E-9	3.544695926E-10	4.726277963E-12	5.297221378E-6	109.017749869	19.647533068	5.548673693	1.000000000	4835.000000000	159.000000000	224.258000000	80.386000000	20.832000000	30.217000000	31.172000000	35.790000000	4.617000000	707.500000000	602.400000000	129.900000000	19.992980957	18.426208496	20.165893555	46.220336914	100.769442909
55.000000000	42887.239451123	7.665119206E-9	6.274689213E-7	1.136616490E-7	5.765552924E-9	3.542071914E-10	4.462584382E-12	5.297221378E-6	108.830658488	19.713919980	5.520498135	1.000000000	4835.000000000	159.000000000	224.258000000	80.386000000	20.832000000	30.217000000	31.172000000	35.790000000	4.617000000	707.500000000	602.400000000	129.900000000	19.991851807	18.440185547	20.162017822	46.216674805	100.399677367
56.000000000	42887.239465949	7.657551038E-9	6.267788990E-7	1.138761831E-7	5.762065491E-9	3.537567739E-10	4.568989718E-12	5.297221378E-6	108.776774568	19.763083797	5.504038524	1.000000000	4835.000000000	159.000000000	224.258000000	80.386000000	20.832000000	30.217000000	31.172000000	35.790000000	4.617000000	707.500000000	602.400000000	129.900000000	19.992797852	18.459991455	20.163818359	46.215209961	100.404643636
57.000000000	42887.239480845	7.633317978E-9	6.263387036E-7	1.142302537E-7	5.774418721E-9	3.554632144E-10	4.437629951E-12	5.322102879E-6	108.467836130	19.782121668	5.483124508	1.000000000	4835.000000000	159.000000000	224.258000000	80.386000000	20.832000000	30.217000000	31.172000000	35.790000000	4.617000000	707.500000000	602.400000000	129.900000000	19.993469238	18.471282959	20.167541504	46.219329834	100.200169077
58.000000000	42887.239495683	7.630451826E-9	6.265424304E-7	1.144457542E-7	5.771716438E-9	3.559431638E-10	4.546322520E-12	5.297221378E-6	108.553917556	19.828720873	5.474579942	1.000000000	4835.000000000	159.000000000	224.258000000	80.386000000	20.832000000	30.217000000	31.172000000	35.790000000	4.617000000	707.500000000	602.400000000	129.900000000	19.993835449	18.479705811	20.165039062	46.219787598	100.515315090
59.000000000	42887.239510556	7.637591892E-9	6.277517173E-7	1.148693727E-7	5.779877021E-9	3.564571693E-10	4.542067243E-12	5.297221378E-6	108.609874388	19.874016740	5.464918129	1.000000000	4835.000000000	159.000000000	224.258000000	80.386000000	20.832000000	30.217000000	31.172000000	35.790000000	4.617000000	707.500000000	602.400000000	129.900000000	19.993713379	18.488616943	20.160461426	46.220520020	100.031485576
60.000000000	42887.239525463	7.646868028E-9	6.268726338E-7	1.149371585E-7	5.751332743E-9	3.550641170E-10	4.437350227E-12	5.297221378E-6	108.996064351	19.984439014	5.454046735	1.000000000	4835.000000000	159.000000000	224.258000000	80.386000000	20.832000000	30.217000000	31.172000000	35.790000000	4.617000000	707.500000000	602.400000000	129.900000000	19.995697021	18.515380859	20.150390625	46.212280273	100.477356590
61.000000000	42887.239540382	7.642655397E-9	6.248066029E-7	1.149948545E-7	5.749139831E-9	3.549550653E-10	4.756401870E-12	5.272462204E-6	108.678275582	20.002097342	5.433344000	1.000000000	4835.000000000	159.000000000	224.258000000	80.386000000	20.832000000	30.217000000	31.172000000	35.790000000	4.617000000	707.500000000	602.400000000	129.900000000	19.994689941	18.529663086	20.152984619	46.214202881	100.076361042
62.000000000	42887.239555289	7.663108370E-9	6.259100473E-7	1.156293337E-7	5.769782430E-9	3.565079065E-10	4.422423365E-12	5.297221378E-6	108.480701826	20.040501540	5.413073201	1.000000000	4835.000000000	159.000000000	224.258000000	80.386000000	20.832000000	30.217000000	31.172000000	35.790000000	4.617000000	707.500000000	602.400000000	129.900000000	19.994384766	18.545532227	20.152038574	46.215362549	99.360708509
63.000000000	42887.239570174	7.660053036E-9	6.283389098E-7	1.163126981E-7	5.775135481E-9	3.562632689E-10	4.468271239E-12	5.297221378E-6	108.800721968	20.140254462	5.402152300	1.000000000	4835.000000000	159.000000000	224.258000000	80.386000000	20.832000000	30.217000000	31.172000000	35.790000000	4.617000000	707.500000000	602.400000000	129.900000000	19.993896484	18.557891846	20.154724121	46.211853027	99.671041917
64.000000000	42887.239585127	7.668659485E-9	6.267946446E-7	1.162754728E-7	5.754896115E-9	3.571500873E-10	4.485311862E-12	5.297221378E-6	108.915023327	20.204617160	5.390600696	1.000000000	4835.000000000	159.000000000	224.258000000	80.386000000	20.832000000	30.217000000	31.172000000	35.790000000	4.617000000	707.500000000	602.400000000	129.900000000	19.995239258	18.583648682	20.154602051	46.216674805	99.245382036
65.000000000	42887.239600012	7.658526258E-9	6.271897064E-7	1.165101935E-7	5.758674426E-9	3.556143435E-10	4.381332970E-12	5.297221378E-6	108.912166234	20.232120254	5.383131618	1.000000000	4835.000000000	159.000000000	224.258000000	80.386000000	20.832000000	30.217000000	31.172000000	35.790000000	4.617000000	707.500000000	602.400000000	129.900000000	19.994934082	18.594543457	20.153930664	46.218475342	99.913683911
66.000000000	42887.239614884	7.632280585E-9	6.255767175E-7	1.163246353E-7	5.746338516E-9	3.556183126E-10	4.503529927E-12	5.272462204E-6	108.865274084	20.243261849	5.377852388	1.000000000	4835.000000000	159.000000000	224.258000000	80.386000000	20.832000000	30.217000000	31.172000000	35.790000000	4.617000000	707.500000000	602.400000000	129.900000000	19.996368408	18.605285645	20.153686523	46.210662842	99.840922453
67.000000000	42887.239629757	7.643328637E-9	6.222916795E-7	1.161918703E-7	5.740147024E-9	3.549386896E-10	4.478668738E-12	5.272462204E-6	108.410407761	20.241967645	5.355724782	1.000000000	4835.000000000	159.000000000	224.258000000	80.386000000	20.832000000	30.217000000	31.172000000	35.790000000	4.617000000	707.500000000	602.400000000	129.900000000	19.995330811	18.619323730	20.154724121	46.217590332	99.834052105
68.000000000	42887.239644583	7.641744126E-9	6.218015187E-7	1.162126182E-7	5.730206531E-9	3.563552231E-10	4.516528644E-12	5.297221378E-6	108.512933225	20.280703245	5.350550813	1.000000000	4835.000000000	159.000000000	224.258000000	80.386000000	20.832000000	30.217000000	31.172000000	35.790000000	4.617000000	707.500000000	602.400000000	129.900000000	19.995513916	18.634033203	20.152832031	46.213012695	99.599234133
69.000000000	42887.239659479	7.640150734E-9	6.237437447E-7	1.168004502E-7	5.738548303E-9	3.547891980E-10	4.410971588E-12	5.272462204E-6	108.693647190	20.353658108	5.340251203	1.000000000	4835.000000000	159.000000000	224.258000000	80.386000000	20.832000000	30.217000000	31.172000000	35.790000000	4.617000000	707.500000000	602.400000000	129.900000000	19.994842529	18.662658691	20.154052734	46.211395264	99.791915271
70.000000000	42887.239674363	7.650530875E-9	6.221426361E-7	1.167684331E-7	5.729897445E-9	3.558475736E-10	4.551543604E-12	5.297221378E-6	108.578319595	20.378799840	5.328003634	1.000000000	4835.000000000	159.000000000	224.258000000	80.386000000	20.832000000	30.217000000	31.172000000	35.790000000	4.617000000	707.500000000	602.400000000	129.900000000	19.997528076	18.672485352	20.153137207	46.213012695	99.723211794
71.000000000	42887.239689271	7.632952936E-9	6.232387477E-7	1.172360058E-7	5.731237263E-9	3.556866468E-10	4.480344481E-12	5.297221378E-6	108.744188937	20.455618991	5.316103560	1.000000000	4835.000000000	159.000000000	224.258000000	80.386000000	20.832000000	30.217000000	31.172000000	35.790000000	4.617000000	707.500000000	602.400000000	129.900000000	19.997375488	18.683044434	20.152984619	46.214202881	100.124845769
72.000000000	42887.239704109	7.641799193E-9	6.228686402E-7	1.174634008E-7	5.738967079E-9	3.566722195E-10	4.566512533E-12	5.297221378E-6	108.533231087	20.467690293	5.302661391	1.000000000	4835.000000000	159.000000000	224.258000000	80.386000000	20.832000000	30.217000000	31.172000000	35.790000000	4.617000000	707.500000000	602.400000000	129.900000000	19.996154785	18.694366455	20.152282715	46.213165283	100.360899009
73.000000000	42887.239718981	7.646564271E-9	6.215857979E-7	1.174661932E-7	5.718138407E-9	3.550939265E-10	4.407722451E-12	5.272462204E-6	108.704223941	20.542733465	5.291614386	1.000000000	4835.000000000	159.000000000	224.258000000	80.386000000	20.832000000	30.217000000	31.172000000	35.790000000	4.617000000	707.500000000	602.400000000	129.900000000	19.997711182	18.712707520	20.151275635	46.215209961	99.325986979
74.000000000	42887.239733819	7.629226140E-9	6.216474162E-7	1.177676978E-7	5.723947538E-9	3.563898066E-10	4.460842286E-12	5.297221378E-6	108.604666983	20.574559258	5.278590205	1.000000000	4835.000000000	159.000000000	218.587000000	78.267000000	20.776000000	30.532000000	31.454000000	36.072000000	4.618000000	715.500000000	602.500000000	131.800000000	19.994842529	18.724365234	20.152832031	46.212280273	100.271826582
75.000000000	42887.239748715	7.633254029E-9	6.226779874E-7	1.181918705E-7	5.732757380E-9	3.569906315E-10	4.580871706E-12	5.297221378E-6	108.617537099	20.616932251	5.268365622	1.000000000	4835.000000000	159.000000000	218.587000000	78.267000000	20.776000000	30.532000000	31.454000000	36.072000000	4.618000000	715.500000000	602.500000000	131.800000000	19.996948242	18.731872559	20.149871826	46.210357666	100.630575866
76.000000000	42887.239763634	7.655046375E-9	6.217435384E-7	1.183167129E-7	5.737647246E-9	3.570002904E-10	4.499121561E-12	5.297221378E-6	108.362105886	20.621120085	5.254908823	1.000000000	4835.000000000	159.000000000	218.587000000	78.267000000	20.776000000	30.532000000	31.454000000	36.072000000	4.618000000	715.500000000	602.500000000	131.800000000	19.996490479	18.744750977	20.151824951	46.213165283	99.775157851
77.000000000	42887.239778519	7.664023194E-9	6.234569128E-7	1.185524141E-7	5.718965301E-9	3.567721674E-10	4.625346113E-12	5.297221378E-6	109.015683767	20.729696346	5.258913683	1.000000000	4835.000000000	159.000000000	218.587000000	78.267000000	20.776000000	30.532000000	31.454000000	36.072000000	4.618000000	715.500000000	602.500000000	131.800000000	19.995788574	18.764892578	20.150970459	46.214355469	100.225075808
78.000000000	42887.239793449	7.643879307E-9	6.209016306E-7	1.185096536E-7	5.707496697E-9	3.556664130E-10	4.576919139E-12	5.272462204E-6	108.787032821	20.763858470	5.239249390	1.000000000	4835.000000000	159.000000000	218.587000000	78.267000000	20.776000000	30.532000000	31.454000000	36.072000000	4.618000000	715.500000000	602.500000000	131.800000000	19.997955322	18.772003174	20.149810791	46.214477539	100.002696297
79.000000000	42887.239808275	7.632522170E-9	6.201534575E-7	1.186408269E-7	5.707902151E-9	3.562637130E-10	4.620733483E-12	5.297221378E-6	108.648228557	20.785364536	5.227150497	1.000000000	4835.000000000	159.000000000	218.587000000	78.267000000	20.776000000	30.532000000	31.454000000	36.072000000	4.618000000	715.500000000	602.500000000	131.800000000	19.996856689	18.783172607	20.149871826	46.210510254	99.585921618
80.000000000	42887.239823102	7.634297639E-9	6.210464676E-7	1.189192247E-7	5.713119755E-9	3.570823914E-10	4.442819376E-12	5.297221378E-6	108.705312371	20.815111496	5.222422777	1.000000000	4835.000000000	159.000000000	218.587000000	78.267000000	20.776000000	30.532000000	31.454000000	36.072000000	4.618000000	715.500000000	602.500000000	131.800000000	19.997772217	18.796203613	20.150024414	46.212127686	100.217291866
81.000000000	42887.239837928	7.648697675E-9	6.196751201E-7	1.189445697E-7	5.704946737E-9	3.558563999E-10	4.486573873E-12	5.272462204E-6	108.620667054	20.849374276	5.209780669	1.000000000	4835.000000000	159.000000000	218.587000000	78.267000000	20.776000000	30.532000000	31.454000000	36.072000000	4.618000000	715.500000000	602.500000000	131.800000000	19.996276855	18.808471680	20.150054932	46.215209961	100.136813816
82.000000000	42887.239852836	7.637225963E-9	6.193805575E-7	1.191963932E-7	5.701323413E-9	3.562224404E-10	4.588432065E-12	5.272462204E-6	108.638032366	20.906793837	5.196302848	1.000000000	4835.000000000	159.000000000	218.587000000	78.267000000	20.776000000	30.532000000	31.454000000	36.072000000	4.618000000	715.500000000	602.500000000	131.800000000	19.996063232	18.832824707	20.149841309	46.213439941	100.618532430
83.000000000	42887.239867743	7.633011556E-9	6.196107734E-7	1.194246835E-7	5.701840777E-9	3.574099905E-10	4.537138460E-12	5.297221378E-6	108.668550659	20.944934827	5.188297388	1.000000000	4835.000000000	159.000000000	218.587000000	78.267000000	20.776000000	30.532000000	31.454000000	36.072000000	4.618000000	715.500000000	602.500000000	131.800000000	19.996612549	18.840881348	20.149536133	46.211975098	99.704975206
84.000000000	42887.239882662	7.644548994E-9	6.195770652E-7	1.196391111E-7	5.700159456E-9	3.572238894E-10	4.547323889E-12	5.272462204E-6	108.694690041	20.988730578	5.178716723	1.000000000	4835.000000000	159.000000000	218.587000000	78.267000000	20.776000000	30.532000000	31.454000000	36.072000000	4.618000000	715.500000000	602.500000000	131.800000000	19.996948242	18.851409912	20.150146484	46.215942383	100.506551087
85.000000000	42887.239897488	7.638261579E-9	6.182817742E-7	1.197062858E-7	5.691864757E-9	3.571170026E-10	4.475839838E-12	5.272462204E-6	108.625520912	21.031119128	5.164990044	1.000000000	4835.000000000	159.000000000	218.587000000	78.267000000	20.776000000	30.532000000	31.454000000	36.072000000	4.618000000	715.500000000	602.500000000	131.800000000	19.996398926	18.862487793	20.149383545	46.208007812	100.247786827
86.000000000	42887.239912326	7.636855592E-9	6.182306720E-7	1.199053514E-7	5.696428218E-9	3.570962692E-10	4.516469664E-12	5.297221378E-6	108.529529089	21.049216603	5.155988992	1.000000000	4835.000000000	159.000000000	218.587000000	78.267000000	20.776000000	30.532000000	31.454000000	36.072000000	4.618000000	715.500000000	602.500000000	131.800000000	19.995208740	18.877990723	20.149078369	46.209808350	99.828203552
87.000000000	42887.239927153	7.629226140E-9	6.195653555E-7	1.202655824E-7	5.697494476E-9	3.579859742E-10	4.515939272E-12	5.272462204E-6	108.743476286	21.108503551	5.151643082	1.000000000	4835.000000000	159.000000000	218.587000000	78.267000000	20.776000000	30.532000000	31.454000000	36.072000000	4.618000000	715.500000000	602.500000000	131.800000000	19.995910645	18.887634277	20.149169922	46.206542969	99.938002606
88.000000000	42887.239942037	7.635880372E-9	6.177194791E-7	1.201230049E-7	5.691316307E-9	3.572699081E-10	4.314085981E-12	5.272462204E-6	108.537189956	21.106365978	5.142391166	1.000000000	4835.000000000	159.000000000	218.587000000	78.267000000	20.776000000	30.532000000	31.454000000	36.072000000	4.618000000	715.500000000	602.500000000	131.800000000	19.997650146	18.893280029	20.150024414	46.208465576	100.767275467
89.000000000	42887.239957002	7.628005783E-9	6.177361342E-7	1.204599300E-7	5.693342686E-9	3.575012786E-10	4.485608499E-12	5.272462204E-6	108.501484680	21.158032578	5.128146215	1.000000000	4835.000000000	159.000000000	218.587000000	78.267000000	20.776000000	30.532000000	31.454000000	36.072000000	4.618000000	715.500000000	602.500000000	131.800000000	19.997314453	18.896850586	20.147827148	46.214630127	99.852687680
90.000000000	42887.239971875	7.634048949E-9	6.166143294E-7	1.204684423E-7	5.703510553E-9	3.588596087E-10	4.538708819E-12	5.297221378E-6	108.111368196	21.121805810	5.118471837	1.000000000	4835.000000000	159.000000000	218.587000000	78.267000000	20.776000000	30.532000000	31.454000000	36.072000000	4.618000000	715.500000000	602.500000000	131.800000000	19.997650146	18.910278320	20.147827148	46.212280273	100.384345073
91.000000000	42887.239986759	7.627518173E-9	6.196820550E-7	1.213044527E-7	5.710581785E-9	3.591285602E-10	4.517756828E-12	5.322102879E-6	108.514697505	21.242048055	5.108485642	1.000000000	4835.000000000	159.000000000	218.587000000	78.267000000	20.776000000	30.532000000	31.454000000	36.072000000	4.618000000	715.500000000	602.500000000	131.800000000	19.997955322	18.917907715	20.145904541	46.203460693	99.789647861
92.000000000	42887.240001655	7.639116895E-9	6.209352819E-7	1.216829730E-7	5.715465434E-9	3.598762677E-10	4.791579893E-12	5.297221378E-6	108.641245232	21.290124913	5.102893744	1.000000000	4835.000000000	159.000000000	218.587000000	78.267000000	20.776000000	30.532000000	31.454000000	36.072000000	4.618000000	715.500000000	602.500000000	131.800000000	19.997497559	18.924438477	20.147583008	46.207427979	99.259979092
93.000000000	42887.240016597	7.657184220E-9	6.186340897E-7	1.214427385E-7	5.708112649E-9	3.599764653E-10	4.639992817E-12	5.272462204E-6	108.378045030	21.275462836	5.094039357	1.000000000	4835.000000000	159.000000000	218.587000000	78.267000000	20.776000000	30.532000000	31.454000000	36.072000000	4.618000000	715.500000000	602.500000000	131.800000000	19.997131348	18.925750732	20.145935059	46.215362549	100.258906745
94.000000000	42887.240031563	7.654376688E-9	6.157045505E-7	1.211109719E-7	5.679401394E-9	3.582291130E-10	4.565417922E-12	5.272462204E-6	108.410113634	21.324601578	5.083804883	1.000000000	4835.000000000	159.000000000	218.587000000	78.267000000	20.776000000	30.532000000	31.454000000	36.072000000	4.618000000	715.500000000	602.500000000	131.800000000	19.996612549	18.936553955	20.148376465	46.206542969	99.655607963
95.000000000	42887.240046389	7.629898491E-9	6.137552191E-7	1.210039215E-7	5.653492785E-9	3.580664099E-10	4.805257321E-12	5.272462204E-6	108.562130072	21.403391877	5.072192795	1.000000000	4835.000000000	159.000000000	218.587000000	78.267000000	20.776000000	30.532000000	31.454000000	36.072000000	4.618000000	715.500000000	602.500000000	131.800000000	19.997467041	18.938995361	20.146728516	46.207122803	100.226649560
96.000000000	42887.240061331	7.617747322E-9	6.164369211E-7	1.217922829E-7	5.692427862E-9	3.599767984E-10	4.522562880E-12	5.322102879E-6	108.290686498	21.395489916	5.061379147	1.000000000	4835.000000000	159.000000000	218.587000000	78.267000000	20.776000000	30.532000000	31.454000000	36.072000000	4.618000000	715.500000000	602.500000000	131.800000000	19.996612549	18.944366455	20.147125244	46.203308105	100.110578349
97.000000000	42887.240076238	7.629468612E-9	6.188566317E-7	1.222405359E-7	5.695565797E-9	3.595513332E-10	4.599905092E-12	5.272462204E-6	108.655865598	21.462404312	5.062613863	1.000000000	4835.000000000	159.000000000	213.451000000	76.351000000	20.725000000	30.825000000	31.716000000	36.332000000	4.617000000	723.400000000	602.800000000	133.400000000	19.996917725	18.949096680	20.147857666	46.208007812	100.221221532
98.000000000	42887.240091123	7.674211489E-9	6.163304533E-7	1.223660320E-7	5.666012104E-9	3.594484987E-10	4.595102077E-12	5.223278549E-6	108.776762568	21.596500277	5.036777310	1.000000000	4835.000000000	159.000000000	213.451000000	76.351000000	20.725000000	30.825000000	31.716000000	36.332000000	4.617000000	723.400000000	602.800000000	133.400000000	19.997375488	18.951354980	20.146484375	46.201263428	99.637079434
99.000000000	42887.240106030	7.630697851E-9	6.035784281E-7	1.301491750E-7	5.638562506E-9	3.681810412E-10	4.629728458E-12	5.247812624E-6	107.044734807	23.081977873	4.637589352	1.000000000	4835.000000000	159.000000000	213.451000000	76.351000000	20.725000000	30.825000000	31.716000000	36.332000000	4.617000000	723.400000000	602.800000000	133.400000000	19.998626709	18.951568604	20.147308350	46.208465576	100.537677433
100.000000000	42887.240120914	7.621170361E-9	5.974956139E-7	1.356968369E-7	5.648278734E-9	3.722228914E-10	4.585282674E-12	5.247812624E-6	105.783662962	24.024458296	4.403165377	1.000000000	4835.000000000	159.000000000	213.451000000	76.351000000	20.725000000	30.825000000	31.716000000	36.332000000	4.617000000	723.400000000	602.800000000	133.400000000	19.997711182	18.953918457	20.147125244	46.208618164	100.169702387
101.000000000	42887.240135868	7.627700249E-9	5.949651722E-7	1.383255608E-7	5.646044965E-9	3.750361133E-10	4.704664609E-12	5.247812624E-6	105.377335097	24.499549976	4.301194724	1.000000000	4835.000000000	159.000000000	213.451000000	76.351000000	20.725000000	30.825000000	31.716000000	36.332000000	4.617000000	723.400000000	602.800000000	133.400000000	19.999023437	18.958190918	20.146484375	46.206146240	99.474886680
102.000000000	42887.240150764	7.612075414E-9	5.939474477E-7	1.397612834E-7	5.648791657E-9	3.757885114E-10	4.990037897E-12	5.247812624E-6	105.145929213	24.741801775	4.249728058	1.000000000	4835.000000000	159.000000000	213.451000000	76.351000000	20.725000000	30.825000000	31.716000000	36.332000000	4.617000000	723.400000000	602.800000000	133.400000000	19.998291016	18.976348877	20.144836426	46.198364258	98.772787756
103.000000000	42887.240165602	7.611709485E-9	5.931659643E-7	1.403595604E-7	5.644144263E-9	3.779902225E-10	4.997475090E-12	5.247812624E-6	105.094047335	24.868173788	4.226046039	1.000000000	4835.000000000	159.000000000	213.451000000	76.351000000	20.725000000	30.825000000	31.716000000	36.332000000	4.617000000	723.400000000	602.800000000	133.400000000	19.997802734	18.985137939	20.146118164	46.204925537	99.727921778
104.000000000	42887.240180498	7.593941476E-9	5.928603173E-7	1.409867281E-7	5.652544655E-9	3.783469371E-10	4.788072282E-12	5.247812624E-6	104.883791905	24.942169710	4.205078913	1.000000000	4835.000000000	159.000000000	213.451000000	76.351000000	20.725000000	30.825000000	31.716000000	36.332000000	4.617000000	723.400000000	602.800000000	133.400000000	19.997711182	18.991180420	20.147216797	46.205383301	99.556357715
105.000000000	42887.240195382	7.605664543E-9	5.924177344E-7	1.411750503E-7	5.648759238E-9	3.781876479E-10	4.897490399E-12	5.247812624E-6	104.875727474	24.992222958	4.196334502	1.000000000	4835.000000000	159.000000000	213.451000000	76.351000000	20.725000000	30.825000000	31.716000000	36.332000000	4.617000000	723.400000000	602.800000000	133.400000000	19.999450684	18.994628906	20.146392822	46.203308105	99.259696883
106.000000000	42887.240210289	7.573494720E-9	5.898932613E-7	1.406476571E-7	5.637815548E-9	3.774170421E-10	4.700838243E-12	5.272462204E-6	104.631529065	24.947190252	4.194120781	1.000000000	4835.000000000	159.000000000	213.451000000	76.351000000	20.725000000	30.825000000	31.716000000	36.332000000	4.617000000	723.400000000	602.800000000	133.400000000	19.997955322	19.000610352	20.145629883	46.199951172	100.371076561
107.000000000	42887.240225231	7.560985615E-9	5.902979296E-7	1.407344143E-7	5.631916711E-9	3.769378421E-10	4.979537182E-12	5.247812624E-6	104.812972202	24.988724367	4.194410673	1.000000000	4835.000000000	159.000000000	213.451000000	76.351000000	20.725000000	30.825000000	31.716000000	36.332000000	4.617000000	723.400000000	602.800000000	133.400000000	19.999237061	19.019927979	20.147308350	46.201873779	100.839036632
108.000000000	42887.240240127	7.545049030E-9	5.900324140E-7	1.410556791E-7	5.641124901E-9	3.766857104E-10	4.709163615E-12	5.247812624E-6	104.594814765	25.004884952	4.182975245	1.000000000	4835.000000000	159.000000000	213.451000000	76.351000000	20.725000000	30.825000000	31.716000000	36.332000000	4.617000000	723.400000000	602.800000000	133.400000000	19.998077393	19.027923584	20.145477295	46.199340820	100.086727067
109.000000000	42887.240254965	7.565498450E-9	5.917331691E-7	1.414262840E-7	5.658832070E-9	3.786916614E-10	5.166385982E-12	5.272462204E-6	104.568073739	24.992133055	4.184039574	1.000000000	4835.000000000	159.000000000	213.451000000	76.351000000	20.725000000	30.825000000	31.716000000	36.332000000	4.617000000	723.400000000	602.800000000	133.400000000	19.998168945	19.038879395	20.146331787	46.200378418	100.339742894
110.000000000	42887.240269884	7.549444625E-9	5.935605714E-7	1.417904372E-7	5.669032355E-9	3.789055458E-10	4.803295782E-12	5.272462204E-6	104.702272668	25.011400235	4.186181968	1.000000000	4835.000000000	159.000000000	213.451000000	76.351000000	20.725000000	30.825000000	31.716000000	36.332000000	4.617000000	723.400000000	602.800000000	133.400000000	19.996643066	19.046905518	20.146148682	46.204040527	100.264853074
111.000000000	42887.240284769	7.564151083E-9	5.912928600E-7	1.413356330E-7	5.637892819E-9	3.763772904E-10	4.858911017E-12	5.223278549E-6	104.878343552	25.068875466	4.183607825	1.000000000	4835.000000000	159.000000000	213.451000000	76.351000000	20.725000000	30.825000000	31.716000000	36.332000000	4.617000000	723.400000000	602.800000000	133.400000000	19.997497559	19.068084717	20.146484375	46.203033447	99.834674913
112.000000000	42887.240299734	7.555732040E-9	5.884195957E-7	1.408161268E-7	5.624255284E-9	3.764727974E-10	4.760820210E-12	5.247812624E-6	104.621779424	25.037292878	4.178637840	1.000000000	4835.000000000	159.000000000	213.451000000	76.351000000	20.725000000	30.825000000	31.716000000	36.332000000	4.617000000	723.400000000	602.800000000	133.400000000	19.998718262	19.078674316	20.146453857	46.203033447	100.090685004
113.000000000	42887.240314641	7.570505112E-9	5.924153470E-7	1.420128797E-7	5.663964409E-9	3.782787972E-10	4.805676256E-12	5.247812624E-6	104.593762295	25.073052977	4.171560695	1.000000000	4835.000000000	159.000000000	213.451000000	76.351000000	20.725000000	30.825000000	31.716000000	36.332000000	4.617000000	723.400000000	602.800000000	133.400000000	19.998413086	19.092712402	20.147552490	46.204498291	99.957844870
114.000000000	42887.240329479	7.570380767E-9	5.907452874E-7	1.415520074E-7	5.629289479E-9	3.775976198E-10	4.571850711E-12	5.223278549E-6	104.941358862	25.145625923	4.173344469	1.000000000	4835.000000000	159.000000000	213.451000000	76.351000000	20.725000000	30.825000000	31.716000000	36.332000000	4.617000000	723.400000000	602.800000000	133.400000000	19.997711182	19.102508545	20.146850586	46.202728271	100.077934793
115.000000000	42887.240344398	7.548468517E-9	5.897981055E-7	1.414390312E-7	5.628546962E-9	3.763763745E-10	4.641526313E-12	5.223278549E-6	104.786920934	25.128871112	4.169981233	1.000000000	4835.000000000	159.000000000	213.451000000	76.351000000	20.725000000	30.825000000	31.716000000	36.332000000	4.617000000	723.400000000	602.800000000	133.400000000	19.998138428	19.122467041	20.147857666	46.203033447	100.471118128
116.000000000	42887.240359317	7.518316636E-9	5.881247489E-7	1.409251666E-7	5.620456545E-9	3.768477752E-10	4.881829316E-12	5.223278549E-6	104.640031327	25.073615556	4.173312425	1.000000000	4835.000000000	159.000000000	213.451000000	76.351000000	20.725000000	30.825000000	31.716000000	36.332000000	4.617000000	723.400000000	602.800000000	133.400000000	19.998077393	19.129058838	20.148254395	46.200805664	100.017048530
117.000000000	42887.240374282	7.498962340E-9	5.858369718E-7	1.404102363E-7	5.610303777E-9	3.762418710E-10	5.222577145E-12	5.247812624E-6	104.421613356	25.027207421	4.172323807	1.000000000	4835.000000000	159.000000000	213.451000000	76.351000000	20.725000000	30.825000000	31.716000000	36.332000000	4.617000000	723.400000000	602.800000000	133.400000000	19.999084473	19.138122559	20.149017334	46.200073242	100.291710503
118.000000000	42887.240389201	7.505859045E-9	5.905914122E-7	1.416339757E-7	5.657998958E-9	3.799003889E-10	4.695246362E-12	5.272462204E-6	104.381675673	25.032520632	4.169842790	1.000000000	4835.000000000	159.000000000	213.451000000	76.351000000	20.725000000	30.825000000	31.716000000	36.332000000	4.617000000	723.400000000	602.800000000	133.400000000	19.999389648	19.145294189	20.149658203	46.194946289	99.894717470
119.000000000	42887.240404086	7.507447108E-9	5.908172511E-7	1.415709363E-7	5.651486390E-9	3.783076075E-10	4.816117557E-12	5.272462204E-6	104.541922311	25.050212730	4.173294792	1.000000000	4835.000000000	159.000000000	213.451000000	76.351000000	20.725000000	30.825000000	31.716000000	36.332000000	4.617000000	723.400000000	602.800000000	133.400000000	19.999511719	19.160369873	20.149383545	46.200378418	99.724048692
120.000000000	42887.240418912	7.522891643E-9	5.892937338E-7	1.411451791E-7	5.633162825E-9	3.784308700E-10	4.800088278E-12	5.247812624E-6	104.611521468	25.056115629	4.175089348	1.000000000	4835.000000000	159.000000000	213.451000000	76.351000000	20.725000000	30.825000000	31.716000000	36.332000000	4.617000000	723.400000000	602.800000000	133.400000000	19.998382568	19.165374756	20.148956299	46.204772949	99.812954494
121.000000000	42887.240433750	7.497745536E-9	5.895103072E-7	1.412299611E-7	5.630238942E-9	3.784358937E-10	4.782585352E-12	5.247812624E-6	104.704314211	25.084186039	4.174116475	1.000000000	4835.000000000	159.000000000	207.832000000	74.277000000	20.680000000	31.151000000	32.006000000	36.623000000	4.617000000	731.900000000	602.900000000	134.900000000	19.998504639	19.171783447	20.148437500	46.198150635	99.637050239
122.000000000	42887.240448576	7.502013233E-9	5.893371622E-7	1.414246213E-7	5.645850898E-9	3.777071433E-10	4.804903437E-12	5.272462204E-6	104.384117264	25.049301497	4.167146828	1.000000000	4835.000000000	159.000000000	207.832000000	74.277000000	20.680000000	31.151000000	32.006000000	36.623000000	4.617000000	731.900000000	602.900000000	134.900000000	20.000091553	19.177246094	20.149841309	46.196716309	98.790275029
123.000000000	42887.240463484	7.499331822E-9	5.901075042E-7	1.414668844E-7	5.636136891E-9	3.785522174E-10	4.741142808E-12	5.223278549E-6	104.700704695	25.099973116	4.171347284	1.000000000	4835.000000000	159.000000000	207.832000000	74.277000000	20.680000000	31.151000000	32.006000000	36.623000000	4.617000000	731.900000000	602.900000000	134.900000000	20.000335693	19.183166504	20.150054932	46.201568604	99.129267323
124.000000000	42887.240478403	7.493833110E-9	5.875942293E-7	1.409871260E-7	5.623992827E-9	3.777147206E-10	4.715212595E-12	5.247812624E-6	104.479903753	25.068866606	4.167715493	1.000000000	4835.000000000	159.000000000	207.832000000	74.277000000	20.680000000	31.151000000	32.006000000	36.623000000	4.617000000	731.900000000	602.900000000	134.900000000	20.000030518	19.186340332	20.150756836	46.203186035	99.171608516
125.000000000	42887.240493229	7.475035702E-9	5.886487884E-7	1.413053354E-7	5.632457167E-9	3.780791236E-10	4.877345056E-12	5.297221378E-6	104.510122473	25.087689304	4.165793079	1.000000000	4835.000000000	159.000000000	207.832000000	74.277000000	20.680000000	31.151000000	32.006000000	36.623000000	4.617000000	731.900000000	602.900000000	134.900000000	19.997711182	19.189819336	20.149475098	46.189666748	99.364737297
126.000000000	42887.240508148	7.495970067E-9	5.914270105E-7	1.419795694E-7	5.671744852E-9	3.802697046E-10	4.927996379E-12	5.272462204E-6	104.276025448	25.032784998	4.165578279	1.000000000	4835.000000000	159.000000000	207.832000000	74.277000000	20.680000000	31.151000000	32.006000000	36.623000000	4.617000000	731.900000000	602.900000000	134.900000000	19.999114990	19.192108154	20.150238037	46.196990967	99.930246703
127.000000000	42887.240523067	7.510926991E-9	5.934669502E-7	1.425494105E-7	5.667474934E-9	3.802840542E-10	4.803232031E-12	5.272462204E-6	104.714525813	25.152190731	4.163236791	1.000000000	4835.000000000	159.000000000	207.832000000	74.277000000	20.680000000	31.151000000	32.006000000	36.623000000	4.617000000	731.900000000	602.900000000	134.900000000	19.998626709	19.195037842	20.149383545	46.194183350	99.840299645
128.000000000	42887.240537905	7.506892885E-9	5.902758744E-7	1.416292292E-7	5.646299428E-9	3.780302460E-10	4.970261182E-12	5.247812624E-6	104.542077856	25.083549153	4.167754620	1.000000000	4835.000000000	159.000000000	207.832000000	74.277000000	20.680000000	31.151000000	32.006000000	36.623000000	4.617000000	731.900000000	602.900000000	134.900000000	19.998016357	19.202667236	20.150115967	46.199096680	99.508897820
129.000000000	42887.240552813	7.504214139E-9	5.884511438E-7	1.413676074E-7	5.640037326E-9	3.788011294E-10	4.884640435E-12	5.247812624E-6	104.334618690	25.065012734	4.162559971	1.000000000	4835.000000000	159.000000000	207.832000000	74.277000000	20.680000000	31.151000000	32.006000000	36.623000000	4.617000000	731.900000000	602.900000000	134.900000000	19.999755859	19.208831787	20.150634766	46.202575684	99.992362042
130.000000000	42887.240567743	7.491945730E-9	5.882602636E-7	1.413133361E-7	5.627743160E-9	3.781755187E-10	4.859536818E-12	5.247812624E-6	104.528626636	25.110125341	4.162807840	1.000000000	4835.000000000	159.000000000	207.832000000	74.277000000	20.680000000	31.151000000	32.006000000	36.623000000	4.617000000	731.900000000	602.900000000	134.900000000	19.997406006	19.214782715	20.149871826	46.195983887	100.153333491
131.000000000	42887.240582581	7.471127716E-9	5.889518775E-7	1.414903608E-7	5.644110068E-9	3.801129411E-10	4.714696515E-12	5.272462204E-6	104.348049626	25.068674964	4.162487637	1.000000000	4835.000000000	159.000000000	207.832000000	74.277000000	20.680000000	31.151000000	32.006000000	36.623000000	4.617000000	731.900000000	602.900000000	134.900000000	19.998596191	19.221252441	20.150573730	46.196441650	99.990318454
132.000000000	42887.240597477	7.482482189E-9	5.902900853E-7	1.417086821E-7	5.643542966E-9	3.783519331E-10	4.692620858E-12	5.272462204E-6	104.595657158	25.109879196	4.165518135	1.000000000	4835.000000000	159.000000000	207.832000000	74.277000000	20.680000000	31.151000000	32.006000000	36.623000000	4.617000000	731.900000000	602.900000000	134.900000000	20.001312256	19.236145020	20.151153564	46.197143555	100.390969906
133.000000000	42887.240612373	7.508426769E-9	5.902949169E-7	1.416480728E-7	5.631684452E-9	3.771941370E-10	4.779512723E-12	5.247812624E-6	104.816759882	25.151990320	4.167334614	1.000000000	4835.000000000	159.000000000	207.832000000	74.277000000	20.680000000	31.151000000	32.006000000	36.623000000	4.617000000	731.900000000	602.900000000	134.900000000	19.998504639	19.242187500	20.151519775	46.197753906	100.359221598
134.000000000	42887.240627280	7.480957187E-9	5.880795584E-7	1.413593935E-7	5.628253863E-9	3.773447110E-10	4.828706879E-12	5.247812624E-6	104.487035003	25.116030116	4.160173185	1.000000000	4835.000000000	159.000000000	207.832000000	74.277000000	20.680000000	31.151000000	32.006000000	36.623000000	4.617000000	731.900000000	602.900000000	134.900000000	20.000762939	19.249847412	20.151031494	46.197906494	100.780346083
135.000000000	42887.240642211	7.481137487E-9	5.874257454E-7	1.413025785E-7	5.627492694E-9	3.785402269E-10	4.954007257E-12	5.247812624E-6	104.384985875	25.109331315	4.157218867	1.000000000	4835.000000000	159.000000000	207.832000000	74.277000000	20.680000000	31.151000000	32.006000000	36.623000000	4.617000000	731.900000000	602.900000000	134.900000000	19.998596191	19.257415771	20.151367187	46.201416016	100.405670814
136.000000000	42887.240657118	7.467097163E-9	5.870453492E-7	1.412032447E-7	5.621874966E-9	3.765650014E-10	4.791753366E-12	5.272462204E-6	104.421630295	25.116752955	4.157449432	1.000000000	4835.000000000	159.000000000	207.832000000	74.277000000	20.680000000	31.151000000	32.006000000	36.623000000	4.617000000	731.900000000	602.900000000	134.900000000	20.001251221	19.270568848	20.150787354	46.194946289	100.268811011
137.000000000	42887.240672002	7.450494444E-9	5.886137728E-7	1.414979351E-7	5.634075428E-9	3.771290225E-10	4.731908441E-12	5.247812624E-6	104.473889339	25.114668226	4.159875352	1.000000000	4835.000000000	159.000000000	207.832000000	74.277000000	20.680000000	31.151000000	32.006000000	36.623000000	4.617000000	731.900000000	602.900000000	134.900000000	19.998931885	19.276458740	20.148956299	46.192016602	100.482567874
138.000000000	42887.240686968	7.462825913E-9	5.900599263E-7	1.418795392E-7	5.645907741E-9	3.769783929E-10	4.696043901E-12	5.272462204E-6	104.511081882	25.129624097	4.158879635	1.000000000	4835.000000000	159.000000000	207.832000000	74.277000000	20.680000000	31.151000000	32.006000000	36.623000000	4.617000000	731.900000000	602.900000000	134.900000000	19.997802734	19.283935547	20.149871826	46.194061279	100.541201882
139.000000000	42887.240701794	7.469965091E-9	5.884728012E-7	1.413493891E-7	5.618657539E-9	3.763794276E-10	4.554705137E-12	5.247812624E-6	104.735481215	25.157146186	4.163249696	1.000000000	4835.000000000	159.000000000	207.832000000	74.277000000	20.680000000	31.151000000	32.006000000	36.623000000	4.617000000	731.900000000	602.900000000	134.900000000	20.000335693	19.288513184	20.149139404	46.198455811	100.920466472
140.000000000	42887.240716701	7.448599959E-9	5.868732842E-7	1.411729187E-7	5.617111221E-9	3.769879409E-10	4.898053317E-12	5.247812624E-6	104.479555619	25.132655051	4.157123687	1.000000000	4835.000000000	159.000000000	207.832000000	74.277000000	20.680000000	31.151000000	32.006000000	36.623000000	4.617000000	731.900000000	602.900000000	134.900000000	20.000091553	19.302734375	20.150390625	46.194183350	100.433508304
141.000000000	42887.240731551	7.454464601E-9	5.871175404E-7	1.413032749E-7	5.622330157E-9	3.754779543E-10	4.916015078E-12	5.247812624E-6	104.426016255	25.132511061	4.155017221	1.000000000	4835.000000000	159.000000000	207.832000000	74.277000000	20.680000000	31.151000000	32.006000000	36.623000000	4.617000000	731.900000000	602.900000000	134.900000000	19.999481201	19.308624268	20.150787354	46.194366455	100.604444059
142.000000000	42887.240746481	7.449457495E-9	5.882582741E-7	1.414257440E-7	5.626970001E-9	3.757819333E-10	4.782311699E-12	5.247812624E-6	104.542635554	25.133552156	4.159485094	1.000000000	4835.000000000	159.000000000	207.832000000	74.277000000	20.680000000	31.151000000	32.006000000	36.623000000	4.617000000	731.900000000	602.900000000	134.900000000	20.000091553	19.313629150	20.150451660	46.195678711	100.518651065
143.000000000	42887.240761308	7.456055329E-9	5.868757853E-7	1.411097088E-7	5.617864840E-9	3.752019251E-10	4.599000434E-12	5.247812624E-6	104.465985213	25.118031997	4.159003589	1.000000000	4835.000000000	159.000000000	207.832000000	74.277000000	20.680000000	31.151000000	32.006000000	36.623000000	4.617000000	731.900000000	602.900000000	134.900000000	20.000671387	19.316894531	20.150604248	46.194183350	99.501025142
144.000000000	42887.240776215	7.450863926E-9	5.865956609E-7	1.410742527E-7	5.609536835E-9	3.761311262E-10	4.889606515E-12	5.247812624E-6	104.571139861	25.149001936	4.158063216	1.000000000	4835.000000000	159.000000000	202.435000000	72.296000000	20.644000000	31.471000000	32.292000000	36.915000000	4.624000000	740.100000000	603.300000000	136.100000000	20.000579834	19.320617676	20.149475098	46.192718506	99.541536837
145.000000000	42887.240791157	7.428090143E-9	5.882028518E-7	1.416509576E-7	5.637789346E-9	3.782273661E-10	4.791352645E-12	5.272462204E-6	104.332179798	25.125266115	4.152480587	1.000000000	4835.000000000	159.000000000	202.435000000	72.296000000	20.644000000	31.471000000	32.292000000	36.915000000	4.624000000	740.100000000	603.300000000	136.100000000	20.001312256	19.322631836	20.150115967	46.189544678	99.376337090
146.000000000	42887.240806053	7.437491956E-9	5.893119237E-7	1.417283642E-7	5.636406897E-9	3.769583257E-10	5.185486589E-12	5.247812624E-6	104.554538822	25.145161936	4.158037999	1.000000000	4835.000000000	159.000000000	202.435000000	72.296000000	20.644000000	31.471000000	32.292000000	36.915000000	4.624000000	740.100000000	603.300000000	136.100000000	19.999969482	19.329467773	20.149597168	46.191406250	99.288560128
147.000000000	42887.240820903	7.445061900E-9	5.877129183E-7	1.414183259E-7	5.625480082E-9	3.797105130E-10	4.626230822E-12	5.272462204E-6	104.473380012	25.138890172	4.155846949	1.000000000	4835.000000000	159.000000000	202.435000000	72.296000000	20.644000000	31.471000000	32.292000000	36.915000000	4.624000000	740.100000000	603.300000000	136.100000000	20.000427246	19.330261230	20.149169922	46.193481445	99.465408325
148.000000000	42887.240835729	7.442314320E-9	5.876804039E-7	1.413667974E-7	5.621835886E-9	3.794773940E-10	5.046146660E-12	5.247812624E-6	104.535318327	25.146019957	4.157131765	1.000000000	4835.000000000	159.000000000	202.435000000	72.296000000	20.644000000	31.471000000	32.292000000	36.915000000	4.624000000	740.100000000	603.300000000	136.100000000	20.001190186	19.338348389	20.149932861	46.186889648	99.560814682
149.000000000	42887.240850613	7.439993954E-9	5.862775083E-7	1.409949562E-7	5.603745468E-9	3.799902892E-10	4.974438830E-12	5.247812624E-6	104.622437208	25.160842327	4.158145258	1.000000000	4835.000000000	159.000000000	202.435000000	72.296000000	20.644000000	31.471000000	32.292000000	36.915000000	4.624000000	740.100000000	603.300000000	136.100000000	19.999481201	19.342681885	20.149841309	46.189788818	99.546441448
150.000000000	42887.240865440	7.413260228E-9	5.859661769E-7	1.410023032E-7	5.609635867E-9	3.820586070E-10	4.864004165E-12	5.272462204E-6	104.457079000	25.135731893	4.155720607	1.000000000	4835.000000000	159.000000000	202.435000000	72.296000000	20.644000000	31.471000000	32.292000000	36.915000000	4.624000000	740.100000000	603.300000000	136.100000000	20.000762939	19.343322754	20.148345947	46.186737061	99.892751733
151.000000000	42887.240880278	7.427482185E-9	5.872969950E-7	1.412605144E-7	5.616029863E-9	3.817135219E-10	4.756527203E-12	5.247812624E-6	104.575119671	25.153091745	4.157545352	1.000000000	4835.000000000	159.000000000	202.435000000	72.296000000	20.644000000	31.471000000	32.292000000	36.915000000	4.624000000	740.100000000	603.300000000	136.100000000	20.001159668	19.348937988	20.149566650	46.189056396	99.288024902
152.000000000	42887.240895127	7.419364678E-9	5.873301347E-7	1.413997808E-7	5.632528666E-9	3.832747453E-10	4.750332072E-12	5.272462204E-6	104.274681872	25.104138685	4.153684903	1.000000000	4835.000000000	159.000000000	202.435000000	72.296000000	20.644000000	31.471000000	32.292000000	36.915000000	4.624000000	740.100000000	603.300000000	136.100000000	20.000549316	19.352264404	20.148925781	46.198028564	99.192871561
153.000000000	42887.240910012	7.434868277E-9	5.868229209E-7	1.413484796E-7	5.633788103E-9	3.826265138E-10	4.749699332E-12	5.247812624E-6	104.161340509	25.089420655	4.151604054	1.000000000	4835.000000000	159.000000000	202.435000000	72.296000000	20.644000000	31.471000000	32.292000000	36.915000000	4.624000000	740.100000000	603.300000000	136.100000000	19.999755859	19.359497070	20.149566650	46.188781738	100.068190729
154.000000000	42887.240924873	7.417654935E-9	5.852221534E-7	1.409132153E-7	5.607487363E-9	3.832092699E-10	4.926245609E-12	5.247812624E-6	104.364417695	25.129475323	4.153067915	1.000000000	4835.000000000	159.000000000	202.435000000	72.296000000	20.644000000	31.471000000	32.292000000	36.915000000	4.624000000	740.100000000	603.300000000	136.100000000	20.000091553	19.361114502	20.148590088	46.192596436	100.159147888
155.000000000	42887.240939699	7.444999728E-9	5.911505809E-7	1.426513307E-7	5.658001623E-9	3.868205756E-10	4.936043761E-12	5.272462204E-6	104.480454468	25.212317044	4.144024299	1.000000000	4835.000000000	159.000000000	202.435000000	72.296000000	20.644000000	31.471000000	32.292000000	36.915000000	4.624000000	740.100000000	603.300000000	136.100000000	19.999908447	19.365264893	20.147705078	46.191711426	100.336727323
156.000000000	42887.240954549	7.450739581E-9	5.897502433E-7	1.417480320E-7	5.628319588E-9	3.848354413E-10	4.733016930E-12	5.272462204E-6	104.782650322	25.184787352	4.160553308	1.000000000	4835.000000000	159.000000000	202.435000000	72.296000000	20.644000000	31.471000000	32.292000000	36.915000000	4.624000000	740.100000000	603.300000000	136.100000000	20.001037598	19.368621826	20.148620605	46.191009521	100.139933047
157.000000000	42887.240969387	7.458125673E-9	5.913458949E-7	1.424709524E-7	5.646148882E-9	3.860042008E-10	4.844430412E-12	5.247812624E-6	104.734378654	25.233297129	4.150641833	1.000000000	4835.000000000	159.000000000	202.435000000	72.296000000	20.644000000	31.471000000	32.292000000	36.915000000	4.624000000	740.100000000	603.300000000	136.100000000	20.000732422	19.372619629	20.149291992	46.186584473	100.762441130
158.000000000	42887.240984213	7.466243623E-9	5.880448839E-7	1.418285080E-7	5.622934118E-9	3.864108478E-10	4.729578274E-12	5.247812624E-6	104.579721463	25.223220665	4.146168440	1.000000000	4835.000000000	159.000000000	202.435000000	72.296000000	20.644000000	31.471000000	32.292000000	36.915000000	4.624000000	740.100000000	603.300000000	136.100000000	19.999114990	19.373870850	20.148529053	46.191864014	100.029120238
159.000000000	42887.240999097	7.442192196E-9	5.888339842E-7	1.419484335E-7	5.623025157E-9	3.859733644E-10	4.946809455E-12	5.247812624E-6	104.718362063	25.244139853	4.148224605	1.000000000	4835.000000000	159.000000000	202.435000000	72.296000000	20.644000000	31.471000000	32.292000000	36.915000000	4.624000000	740.100000000	603.300000000	136.100000000	20.000915527	19.377563477	20.148315430	46.195831299	100.461157320
160.000000000	42887.241013993	7.410327463E-9	5.881073548E-7	1.416968871E-7	5.629706923E-9	3.850637864E-10	4.876596956E-12	5.272462204E-6	104.465003751	25.169496220	4.150460654	1.000000000	4835.000000000	159.000000000	202.435000000	72.296000000	20.644000000	31.471000000	32.292000000	36.915000000	4.624000000	740.100000000	603.300000000	136.100000000	20.001434326	19.378417969	20.149993896	46.190246582	100.187173851
161.000000000	42887.241028866	7.417651382E-9	5.883500762E-7	1.417662645E-7	5.640647949E-9	3.875043342E-10	4.935060173E-12	5.247812624E-6	104.305406323	25.132975111	4.150141631	1.000000000	4835.000000000	159.000000000	202.435000000	72.296000000	20.644000000	31.471000000	32.292000000	36.915000000	4.624000000	740.100000000	603.300000000	136.100000000	20.001098633	19.384521484	20.149261475	46.183349609	100.144465827
162.000000000	42887.241043715	7.419850956E-9	5.875057241E-7	1.415706521E-7	5.622313282E-9	3.869467524E-10	4.950150099E-12	5.247812624E-6	104.495373104	25.180142941	4.149911831	1.000000000	4835.000000000	159.000000000	202.435000000	72.296000000	20.644000000	31.471000000	32.292000000	36.915000000	4.624000000	740.100000000	603.300000000	136.100000000	20.000793457	19.384460449	20.147827148	46.188323975	100.291522030
163.000000000	42887.241058600	7.438345051E-9	5.885408996E-7	1.420498705E-7	5.633839617E-9	3.882210109E-10	4.876049651E-12	5.247812624E-6	104.465327304	25.213687323	4.143199127	1.000000000	4835.000000000	159.000000000	202.435000000	72.296000000	20.644000000	31.471000000	32.292000000	36.915000000	4.624000000	740.100000000	603.300000000	136.100000000	20.000518799	19.386718750	20.148895264	46.189544678	100.455701021
164.000000000	42887.241073484	7.438897498E-9	5.870365953E-7	1.415996422E-7	5.612380782E-9	3.870409826E-10	4.940001533E-12	5.247812624E-6	104.596715387	25.229870838	4.145749142	1.000000000	4835.000000000	159.000000000	202.435000000	72.296000000	20.644000000	31.471000000	32.292000000	36.915000000	4.624000000	740.100000000	603.300000000	136.100000000	20.000518799	19.390991211	20.149719238	46.186157227	100.126777619
165.000000000	42887.241088322	7.421131709E-9	5.889555723E-7	1.420746258E-7	5.625794941E-9	3.868403931E-10	4.909645173E-12	5.272462204E-6	104.688417990	25.254142273	4.145395906	1.000000000	4835.000000000	159.000000000	202.435000000	72.296000000	20.644000000	31.471000000	32.292000000	36.915000000	4.624000000	740.100000000	603.300000000	136.100000000	20.001251221	19.394256592	20.148071289	46.182006836	99.465019070
166.000000000	42887.241103183	7.401478097E-9	5.890923376E-7	1.418316629E-7	5.628396416E-9	3.859103592E-10	4.994464044E-12	5.247812624E-6	104.664329603	25.199302321	4.153461404	1.000000000	4835.000000000	159.000000000	202.435000000	72.296000000	20.644000000	31.471000000	32.292000000	36.915000000	4.624000000	740.100000000	603.300000000	136.100000000	19.999572754	19.402099609	20.147094727	46.186157227	99.669640599
167.000000000	42887.241118113	7.400501989E-9	5.877109857E-7	1.415297675E-7	5.621015653E-9	3.858746656E-10	5.177688139E-12	5.247812624E-6	104.556012995	25.178682324	4.152560950	1.000000000	4835.000000000	159.000000000	197.572000000	70.504000000	20.605000000	31.771000000	32.559000000	37.180000000	4.621000000	748.200000000	603.500000000	137.400000000	20.000671387	19.406768799	20.147216797	46.189666748	100.030156840
168.000000000	42887.241133067	7.431448346E-9	5.869936217E-7	1.415562565E-7	5.619646082E-9	3.830238904E-10	4.851724491E-12	5.247812624E-6	104.453841606	25.189532300	4.146716198	1.000000000	4835.000000000	159.000000000	197.572000000	70.504000000	20.605000000	31.771000000	32.559000000	37.180000000	4.621000000	748.200000000	603.500000000	137.400000000	20.002014160	19.411315918	20.149353027	46.184112549	99.731619699
169.000000000	42887.241147951	7.405749791E-9	5.867990467E-7	1.413911832E-7	5.621376253E-9	3.825642303E-10	4.799542274E-12	5.247812624E-6	104.387078935	25.152414077	4.150181315	1.000000000	4835.000000000	159.000000000	197.572000000	70.504000000	20.605000000	31.771000000	32.559000000	37.180000000	4.621000000	748.200000000	603.500000000	137.400000000	19.999572754	19.412902832	20.148925781	46.179382324	99.254208390
170.000000000	42887.241162870	7.397326307E-9	5.867019013E-7	1.413322224E-7	5.612350584E-9	3.827200223E-10	5.331291832E-12	5.247812624E-6	104.537642913	25.182358131	4.151225329	1.000000000	4835.000000000	159.000000000	197.572000000	70.504000000	20.605000000	31.771000000	32.559000000	37.180000000	4.621000000	748.200000000	603.500000000	137.400000000	20.001403809	19.417114258	20.151123047	46.182006836	98.989622155
171.000000000	42887.241177870	7.392076729E-9	5.860218266E-7	1.412003741E-7	5.605136799E-9	3.808395543E-10	4.989616793E-12	5.247812624E-6	104.550851767	25.191244945	4.150285228	1.000000000	4835.000000000	159.000000000	197.572000000	70.504000000	20.605000000	31.771000000	32.559000000	37.180000000	4.621000000	748.200000000	603.500000000	137.400000000	20.002014160	19.420379639	20.148590088	46.185974121	99.058919245
172.000000000	42887.241192824	7.392199297E-9	5.857734209E-7	1.412428503E-7	5.604445796E-9	3.813579452E-10	5.072990205E-12	5.247812624E-6	104.519419434	25.201929939	4.147278390	1.000000000	4835.000000000	159.000000000	197.572000000	70.504000000	20.605000000	31.771000000	32.559000000	37.180000000	4.621000000	748.200000000	603.500000000	137.400000000	20.002166748	19.420806885	20.149932861	46.180694580	98.845665990
173.000000000	42887.241207870	7.390611678E-9	5.846818567E-7	1.409700161E-7	5.597002861E-9	3.810645410E-10	4.875984599E-12	5.247812624E-6	104.463383566	25.186697167	4.147561821	1.000000000	4835.000000000	159.000000000	197.572000000	70.504000000	20.605000000	31.771000000	32.559000000	37.180000000	4.621000000	748.200000000	603.500000000	137.400000000	20.001953125	19.421203613	20.149536133	46.184539795	99.163677449
174.000000000	42887.241222778	7.365765331E-9	5.859784551E-7	1.412678756E-7	5.614924081E-9	3.817326732E-10	4.918604586E-12	5.272462204E-6	104.360886561	25.159356311	4.147995095	1.000000000	4835.000000000	159.000000000	197.572000000	70.504000000	20.605000000	31.771000000	32.559000000	37.180000000	4.621000000	748.200000000	603.500000000	137.400000000	20.002075195	19.425292969	20.150299072	46.176879883	99.363481950
175.000000000	42887.241237685	7.382798373E-9	5.885021324E-7	1.419764999E-7	5.641703993E-9	3.836370110E-10	4.786062172E-12	5.272462204E-6	104.312834049	25.165535106	4.145067196	1.000000000	4835.000000000	159.000000000	197.572000000	70.504000000	20.605000000	31.771000000	32.559000000	37.180000000	4.621000000	748.200000000	603.500000000	137.400000000	20.001159668	19.425903320	20.149414062	46.187774658	99.584880362
176.000000000	42887.241252569	7.398364588E-9	5.875118632E-7	1.415229889E-7	5.613125076E-9	3.800205706E-10	4.756976063E-12	5.247812624E-6	104.667516797	25.212869297	4.151352849	1.000000000	4835.000000000	159.000000000	197.572000000	70.504000000	20.605000000	31.771000000	32.559000000	37.180000000	4.621000000	748.200000000	603.500000000	137.400000000	20.001678467	19.430389404	20.149291992	46.184387207	100.032220622
177.000000000	42887.241267488	7.403002211E-9	5.866316428E-7	1.412345512E-7	5.606738629E-9	3.814787375E-10	5.692780882E-12	5.223278549E-6	104.629746746	25.190143596	4.153598662	1.000000000	4835.000000000	159.000000000	197.572000000	70.504000000	20.605000000	31.771000000	32.559000000	37.180000000	4.621000000	748.200000000	603.500000000	137.400000000	19.999969482	19.429992676	20.149017334	46.184967041	100.269414125
178.000000000	42887.241282465	7.396106394E-9	5.890208286E-7	1.424600526E-7	5.635334421E-9	3.822454020E-10	5.178130928E-12	5.272462204E-6	104.522781528	25.279786787	4.134638571	1.000000000	4835.000000000	159.000000000	197.572000000	70.504000000	20.605000000	31.771000000	32.559000000	37.180000000	4.621000000	748.200000000	603.500000000	137.400000000	20.001739502	19.433502197	20.149078369	46.184539795	99.860365731
