QMG 220  (h6 Triton.vi)	Device:	EIMS  (PTM28611-44508749)																											
MID	ParaFile:	P+ Ratios.rcp																											
																													
																													
																													
	UTC offset (s)	25200																											
All masses (amu) are displayed in (A)																													
																													
cycle #	time	4.00	18.06	28.09	32.12	40.12	44.12	58.12	TP	N2/Ar	N2/O2	Valve	ID	S#	O2 (uM)	O2 Sat (%)	Temp (C)	Calphase (C)	TCphase (C)	C1 (C)	C2 (C)	C1amp (mV)	C2amp (mV)	Temp (mV)	inlet	sock	outlet	MS	flow
0.000000000	42911.279693090	7.211358789E-13	-4.465553361E-12	-4.358481354E-10	-1.068858613E-10	-8.306633159E-12	-4.239407016E-14	4.806466640E-13	4.132327376E-6	52.469890871	4.077696808	NaN	4835.000000000	159.000000000	339.305000000	109.709000000	15.798000000	27.705000000	28.932000000	33.405000000	4.473000000	621.000000000	627.200000000	296.700000000	15.044830322	15.127716064	15.126831055	45.966644287	25.370645336
1.000000000	42911.279699479	5.761753244E-14	-5.380946123E-12	-4.599559900E-10	-1.096041313E-10	-9.029562688E-12	-5.744155152E-13	-5.152485833E-14	4.132327376E-6	50.938899907	4.196520554	NaN	4835.000000000	159.000000000	339.305000000	109.709000000	15.798000000	27.705000000	28.932000000	33.405000000	4.473000000	621.000000000	627.200000000	296.700000000	15.044250488	15.127502441	15.126922607	45.965332031	27.065259148
2.000000000	42911.279705312	-5.719083112E-14	-5.650748532E-12	-4.684146959E-10	-1.105777692E-10	-9.173570757E-12	-5.890703507E-13	-9.821601811E-14	4.132327376E-6	51.061326970	4.236065707	NaN	4835.000000000	159.000000000	339.305000000	109.709000000	15.798000000	27.705000000	28.932000000	33.405000000	4.473000000	621.000000000	627.200000000	296.700000000	15.044250488	15.127502441	15.126922607	45.965332031	27.065259148
3.000000000	42911.279711030	-1.083021002E-13	-5.729306786E-12	-4.727697678E-10	-1.111848114E-10	-9.239681069E-12	-6.352601279E-13	-1.180288912E-13	4.132327376E-6	51.167325393	4.252107478	NaN	4835.000000000	159.000000000	339.305000000	109.709000000	15.798000000	27.705000000	28.932000000	33.405000000	4.473000000	621.000000000	627.200000000	296.700000000	15.043975830	15.128631592	15.127502441	45.957489014	28.780547591
4.000000000	42911.279716759	-1.099096671E-13	-5.804344852E-12	-4.758748395E-10	-1.116173334E-10	-9.297156794E-12	-6.049034429E-13	-1.755453964E-13	4.151737357E-6	51.184985911	4.263449277	NaN	4835.000000000	159.000000000	339.305000000	109.709000000	15.798000000	27.705000000	28.932000000	33.405000000	4.473000000	621.000000000	627.200000000	296.700000000	15.043975830	15.128631592	15.127502441	45.957489014	28.780547591
5.000000000	42911.279722500	-1.355412635E-13	-5.843880935E-12	-4.767320427E-10	-1.118303297E-10	-9.310415286E-12	-6.290135513E-13	-1.773644437E-13	4.151737357E-6	51.204165237	4.262994162	NaN	4835.000000000	159.000000000	339.305000000	109.709000000	15.798000000	27.705000000	28.932000000	33.405000000	4.473000000	621.000000000	627.200000000	296.700000000	15.043975830	15.128631592	15.127502441	45.957489014	28.780547591
6.000000000	42911.279728229	-1.671645271E-13	-5.862321479E-12	-4.775576046E-10	-1.120104495E-10	-9.312854307E-12	-6.689637993E-13	-1.838799024E-13	4.151737357E-6	51.279402514	4.263509401	NaN	4835.000000000	159.000000000	339.305000000	109.709000000	15.798000000	27.705000000	28.932000000	33.405000000	4.473000000	621.000000000	627.200000000	296.700000000	15.043609619	15.127868652	15.125823975	45.959381104	30.170591018
7.000000000	42911.279733970	-1.822167092E-13	-5.895415666E-12	-4.765834394E-10	-1.117037574E-10	-9.331458349E-12	-6.839908956E-13	-1.922548627E-13	4.132327376E-6	51.072771431	4.266494258	NaN	4835.000000000	159.000000000	339.305000000	109.709000000	15.798000000	27.705000000	28.932000000	33.405000000	4.473000000	621.000000000	627.200000000	296.700000000	15.043609619	15.127868652	15.125823975	45.959381104	30.170591018
8.000000000	42911.279739711	-1.864994975E-13	-5.912388634E-12	-4.759320160E-10	-1.115489368E-10	-9.329720156E-12	-6.885390695E-13	-2.221983990E-13	4.132327376E-6	51.012464260	4.266575997	NaN	4835.000000000	159.000000000	339.305000000	109.709000000	15.798000000	27.705000000	28.932000000	33.405000000	4.473000000	621.000000000	627.200000000	296.700000000	15.044403076	15.128417969	15.127258301	45.958496094	32.021151617
9.000000000	42911.279745440	-1.654636172E-13	-5.930948007E-12	-4.755488225E-10	-1.114280682E-10	-9.326655767E-12	-6.935700386E-13	-2.298461443E-13	4.132327376E-6	50.988139202	4.267765119	NaN	4835.000000000	159.000000000	339.305000000	109.709000000	15.798000000	27.705000000	28.932000000	33.405000000	4.473000000	621.000000000	627.200000000	296.700000000	15.044403076	15.128417969	15.127258301	45.958496094	32.021151617
10.000000000	42911.279751181	-1.875553342E-13	-5.972449098E-12	-4.748273996E-10	-1.112214487E-10	-9.344986590E-12	-6.857158613E-13	-2.817879122E-13	4.132327376E-6	50.810923594	4.269207110	NaN	4835.000000000	159.000000000	339.305000000	109.709000000	15.798000000	27.705000000	28.932000000	33.405000000	4.473000000	621.000000000	627.200000000	296.700000000	15.045043945	15.129241943	15.127838135	45.957916260	34.091461687
11.000000000	42911.279756921	-2.308488416E-13	-5.983129790E-12	-4.744700188E-10	-1.112263545E-10	-9.343891980E-12	-6.906704484E-13	-2.648339447E-13	4.132327376E-6	50.778628420	4.265805716	NaN	4835.000000000	159.000000000	339.305000000	109.709000000	15.798000000	27.705000000	28.932000000	33.405000000	4.473000000	621.000000000	627.200000000	296.700000000	15.045043945	15.129241943	15.127838135	45.957916260	34.091461687
12.000000000	42911.279762650	-2.297815529E-13	-5.948610528E-12	-4.749239335E-10	-1.113047779E-10	-9.340113752E-12	-7.130267514E-13	-2.502066479E-13	4.132327376E-6	50.847767611	4.266878228	NaN	4835.000000000	159.000000000	339.305000000	109.709000000	15.798000000	27.705000000	28.932000000	33.405000000	4.473000000	621.000000000	627.200000000	296.700000000	15.044128418	15.128204346	15.127929687	45.958770752	35.148932233
13.000000000	42911.279768391	-2.483118420E-13	-5.926326704E-12	-4.742797821E-10	-1.112541587E-10	-9.347927814E-12	-7.046705884E-13	-2.720455426E-13	4.132327376E-6	50.736354790	4.263029695	NaN	4835.000000000	159.000000000	339.305000000	109.709000000	15.798000000	27.705000000	28.932000000	33.405000000	4.473000000	621.000000000	627.200000000	296.700000000	15.044128418	15.128204346	15.127929687	45.958770752	35.148932233
14.000000000	42911.279774120	-2.365873068E-13	-5.947499004E-12	-4.740914883E-10	-1.110182155E-10	-9.347785566E-12	-7.103939290E-13	-2.709352924E-13	4.132327376E-6	50.716983709	4.270393704	NaN	4835.000000000	159.000000000	339.305000000	109.709000000	15.798000000	27.705000000	28.932000000	33.405000000	4.473000000	621.000000000	627.200000000	296.700000000	15.044830322	15.129180908	15.127990723	45.955322266	36.413768507
15.000000000	42911.279779861	-2.165413167E-13	-5.970675343E-12	-4.727876979E-10	-1.107581596E-10	-9.326098921E-12	-6.990628779E-13	-2.826537832E-13	4.132327376E-6	50.695119352	4.268648916	NaN	4835.000000000	159.000000000	339.305000000	109.709000000	15.798000000	27.705000000	28.932000000	33.405000000	4.473000000	621.000000000	627.200000000	296.700000000	15.044830322	15.129180908	15.127990723	45.955322266	36.413768507
16.000000000	42911.279785590	-2.541076074E-13	-5.958466793E-12	-4.722114921E-10	-1.107300779E-10	-9.297184550E-12	-6.804367725E-13	-2.810257181E-13	4.132327376E-6	50.790805495	4.264527770	NaN	4835.000000000	159.000000000	339.305000000	109.709000000	15.798000000	27.705000000	28.932000000	33.405000000	4.473000000	621.000000000	627.200000000	296.700000000	15.045288086	15.129180908	15.127807617	45.961547852	38.348212710
17.000000000	42911.279791331	-2.593602145E-13	-5.929967455E-12	-4.720428493E-10	-1.106211234E-10	-9.290643775E-12	-7.076425492E-13	-2.474584665E-13	4.132327376E-6	50.808411201	4.267203540	NaN	4835.000000000	159.000000000	339.305000000	109.709000000	15.798000000	27.705000000	28.932000000	33.405000000	4.473000000	621.000000000	627.200000000	296.700000000	15.045288086	15.129180908	15.127807617	45.961547852	38.348212710
18.000000000	42911.279797072	-2.332871580E-13	-5.930197739E-12	-4.723531566E-10	-1.106727071E-10	-9.317054073E-12	-7.035786342E-13	-2.580587924E-13	4.132327376E-6	50.697694025	4.268018457	NaN	4835.000000000	159.000000000	339.305000000	109.709000000	15.798000000	27.705000000	28.932000000	33.405000000	4.473000000	621.000000000	627.200000000	296.700000000	15.045471191	15.128540039	15.128265381	45.958770752	40.113136914
19.000000000	42911.279802801	-2.261728673E-13	-5.950931588E-12	-4.722178759E-10	-1.105893641E-10	-9.347725718E-12	-6.761548244E-13	-2.833471034E-13	4.132327376E-6	50.516873316	4.270011677	NaN	4835.000000000	159.000000000	339.305000000	109.709000000	15.798000000	27.705000000	28.932000000	33.405000000	4.473000000	621.000000000	627.200000000	296.700000000	15.045471191	15.128540039	15.128265381	45.958770752	40.113136914
20.000000000	42911.279808542	-2.526431484E-13	-5.949252809E-12	-4.723207936E-10	-1.106836983E-10	-9.315969003E-12	-6.994253809E-13	-2.879878410E-13	4.151737357E-6	50.700125068	4.267302238	NaN	4835.000000000	159.000000000	339.305000000	109.709000000	15.798000000	27.705000000	28.932000000	33.405000000	4.473000000	621.000000000	627.200000000	296.700000000	15.046264648	15.129791260	15.128356934	45.953979492	41.796055813
21.000000000	42911.279814271	-2.278194181E-13	-5.938950720E-12	-4.723753610E-10	-1.105353239E-10	-9.342113021E-12	-6.890110769E-13	-2.548742196E-13	4.132327376E-6	50.564081167	4.273524012	NaN	4835.000000000	159.000000000	339.305000000	109.709000000	15.798000000	27.705000000	28.932000000	33.405000000	4.473000000	621.000000000	627.200000000	296.700000000	15.046264648	15.129791260	15.128356934	45.953979492	41.796055813
22.000000000	42911.279820012	-2.194627672E-13	-5.965912226E-12	-4.711717683E-10	-1.102505517E-10	-9.324927983E-12	-6.610503160E-13	-2.887053118E-13	4.132327376E-6	50.528193799	4.273645445	NaN	4835.000000000	159.000000000	339.305000000	109.709000000	15.798000000	27.705000000	28.932000000	33.405000000	4.473000000	621.000000000	627.200000000	296.700000000	15.045684814	15.130432129	15.129302979	45.955596924	43.637031633
23.000000000	42911.279825741	-2.407456829E-13	-5.951633717E-12	-4.710669077E-10	-1.103528519E-10	-9.330045417E-12	-6.547185212E-13	-2.868349276E-13	4.132327376E-6	50.489240583	4.268733429	NaN	4835.000000000	159.000000000	339.305000000	109.709000000	15.798000000	27.705000000	28.932000000	33.405000000	4.473000000	621.000000000	627.200000000	296.700000000	15.045684814	15.130432129	15.129302979	45.955596924	43.637031633
24.000000000	42911.279831481	-2.480358583E-13	-5.991094339E-12	-4.715615676E-10	-1.104260849E-10	-9.314533519E-12	-6.858345272E-13	-2.930432860E-13	4.151737357E-6	50.626428751	4.270382019	NaN	4835.000000000	159.000000000	339.305000000	109.709000000	15.798000000	27.705000000	28.932000000	33.405000000	4.473000000	621.000000000	627.200000000	296.700000000	15.047088623	15.129821777	15.128784180	45.956481934	45.328300048
25.000000000	42911.279837222	-2.715706891E-13	-5.927335445E-12	-4.713628377E-10	-1.104471167E-10	-9.285047557E-12	-6.738143030E-13	-2.809976644E-13	4.132327376E-6	50.765796809	4.267769514	NaN	4835.000000000	159.000000000	339.305000000	109.709000000	15.798000000	27.705000000	28.932000000	33.405000000	4.473000000	621.000000000	627.200000000	296.700000000	15.047088623	15.129821777	15.128784180	45.956481934	45.328300048
26.000000000	42911.279842951	-2.395407006E-13	-5.964991955E-12	-4.708549106E-10	-1.101452610E-10	-9.264535319E-12	-7.078297367E-13	-2.500153134E-13	4.132327376E-6	50.823370453	4.274854011	NaN	4835.000000000	159.000000000	339.305000000	109.709000000	15.798000000	27.705000000	28.932000000	33.405000000	4.473000000	621.000000000	627.200000000	296.700000000	15.045135498	15.129699707	15.129821777	45.951385498	47.287594737
27.000000000	42911.279848692	-2.581529554E-13	-5.929584081E-12	-4.694963307E-10	-1.099627542E-10	-9.244729114E-12	-7.141871729E-13	-2.369006684E-13	4.132327376E-6	50.785298834	4.269594139	NaN	4835.000000000	159.000000000	339.305000000	109.709000000	15.798000000	27.705000000	28.932000000	33.405000000	4.473000000	621.000000000	627.200000000	296.700000000	15.045135498	15.129699707	15.129821777	45.951385498	47.287594737
28.000000000	42911.279854421	-2.660593642E-13	-5.913784219E-12	-4.690982602E-10	-1.098589900E-10	-9.244354414E-12	-6.946608002E-13	-2.203348859E-13	4.132327376E-6	50.744296382	4.270003396	NaN	4835.000000000	159.000000000	339.305000000	109.709000000	15.798000000	27.705000000	28.932000000	33.405000000	4.473000000	621.000000000	627.200000000	296.700000000	15.045349121	15.129821777	15.129028320	45.954711914	49.055273873
29.000000000	42911.279860162	-2.398543332E-13	-5.957852267E-12	-4.688763267E-10	-1.097432908E-10	-9.264201385E-12	-6.634390845E-13	-2.849200368E-13	4.132327376E-6	50.611629342	4.272482837	NaN	4835.000000000	159.000000000	339.305000000	109.709000000	15.798000000	27.705000000	28.932000000	33.405000000	4.473000000	621.000000000	627.200000000	296.700000000	15.045349121	15.129821777	15.129028320	45.954711914	49.055273873
30.000000000	42911.279865891	-2.521170393E-13	-5.971707503E-12	-4.681411370E-10	-1.095528251E-10	-9.251999340E-12	-6.812713371E-13	-2.515777029E-13	4.132327376E-6	50.598915948	4.273200042	NaN	4835.000000000	159.000000000	339.305000000	109.709000000	15.798000000	27.705000000	28.932000000	33.405000000	4.473000000	621.000000000	627.200000000	296.700000000	15.045349121	15.129821777	15.129028320	45.954711914	49.055273873
31.000000000	42911.279871632	-2.510180919E-13	-5.961638735E-12	-4.678161747E-10	-1.094894106E-10	-9.256018695E-12	-6.565276751E-13	-2.732017629E-13	4.132327376E-6	50.541835548	4.272707033	NaN	4835.000000000	159.000000000	339.305000000	109.709000000	15.798000000	27.705000000	28.932000000	33.405000000	4.473000000	621.000000000	627.200000000	296.700000000	15.045928955	15.129028320	15.130035400	45.949768066	50.183952293
32.000000000	42911.279877373	-2.628005506E-13	-5.971846281E-12	-4.683188837E-10	-1.095165486E-10	-9.266943983E-12	-6.736943902E-13	-2.680075400E-13	4.132327376E-6	50.536496663	4.276238519	NaN	4835.000000000	159.000000000	339.305000000	109.709000000	15.798000000	27.705000000	28.932000000	33.405000000	4.473000000	621.000000000	627.200000000	296.700000000	15.045928955	15.129028320	15.130035400	45.949768066	50.183952293
33.000000000	42911.279883102	-2.660315273E-13	-5.968507372E-12	-4.685539179E-10	-1.096743460E-10	-9.237221231E-12	-6.988546569E-13	-2.601819042E-13	4.132327376E-6	50.724552998	4.272228967	NaN	4835.000000000	159.000000000	339.305000000	109.709000000	15.798000000	27.705000000	28.932000000	33.405000000	4.473000000	621.000000000	627.200000000	296.700000000	15.044708252	15.128448486	15.128021240	45.946319580	52.890874123
34.000000000	42911.279888843	-2.415172825E-13	-5.959918323E-12	-4.691322886E-10	-1.097274355E-10	-9.257688366E-12	-6.846743224E-13	-2.779488879E-13	4.151737357E-6	50.674884488	4.275432908	NaN	4835.000000000	159.000000000	339.305000000	109.709000000	15.798000000	27.705000000	28.932000000	33.405000000	4.473000000	621.000000000	627.200000000	296.700000000	15.044708252	15.128448486	15.128021240	45.946319580	52.890874123
35.000000000	42911.279894572	-2.676855590E-13	-5.954648233E-12	-4.682174648E-10	-1.095830648E-10	-9.240128628E-12	-6.860321772E-13	-2.537324192E-13	4.151737357E-6	50.672180407	4.272717372	NaN	4835.000000000	159.000000000	339.305000000	109.709000000	15.798000000	27.705000000	28.932000000	33.405000000	4.473000000	621.000000000	627.200000000	296.700000000	15.045928955	15.129730225	15.128997803	45.946014404	54.441319874
36.000000000	42911.279900312	-2.362638622E-13	-5.957694841E-12	-4.686659949E-10	-1.095513541E-10	-9.253617837E-12	-6.819309115E-13	-2.686747580E-13	4.132327376E-6	50.646785197	4.278048398	NaN	4835.000000000	159.000000000	339.305000000	109.709000000	15.798000000	27.705000000	28.932000000	33.405000000	4.473000000	621.000000000	627.200000000	296.700000000	15.045928955	15.129730225	15.128997803	45.946014404	54.441319874
37.000000000	42911.279906042	-2.410951755E-13	-5.955810498E-12	-4.687704114E-10	-1.096170099E-10	-9.253758350E-12	-6.765767417E-13	-2.275729247E-13	4.151737357E-6	50.657299840	4.276438591	NaN	4835.000000000	159.000000000	339.305000000	109.709000000	15.798000000	27.705000000	28.932000000	33.405000000	4.473000000	621.000000000	627.200000000	296.700000000	15.046936035	15.129608154	15.128814697	45.952819824	55.758509539
38.000000000	42911.279911782	-2.254987375E-13	-5.991644680E-12	-4.689053035E-10	-1.096401442E-10	-9.257368309E-12	-6.662094379E-13	-2.744134130E-13	4.151737357E-6	50.652117081	4.276766571	NaN	4835.000000000	159.000000000	339.305000000	109.709000000	15.798000000	27.705000000	28.932000000	33.405000000	4.473000000	621.000000000	627.200000000	296.700000000	15.046936035	15.129608154	15.128814697	45.952819824	55.758509539
39.000000000	42911.279917512	-2.389546352E-13	-5.984542289E-12	-4.685631882E-10	-1.095202262E-10	-9.253519825E-12	-6.662265683E-13	-2.762004763E-13	4.132327376E-6	50.636211635	4.278325606	NaN	4835.000000000	159.000000000	339.305000000	109.709000000	15.798000000	27.705000000	28.932000000	33.405000000	4.473000000	621.000000000	627.200000000	296.700000000	15.046447754	15.131072998	15.129821777	45.953430176	57.991630398
40.000000000	42911.279923252	-2.356921895E-13	-5.969237691E-12	-4.677546683E-10	-1.093682089E-10	-9.209664281E-12	-6.788465731E-13	-2.451845964E-13	4.151737357E-6	50.789546074	4.276879661	NaN	4835.000000000	159.000000000	339.305000000	109.709000000	15.798000000	27.705000000	28.932000000	33.405000000	4.473000000	621.000000000	627.200000000	296.700000000	15.046447754	15.131072998	15.129821777	45.953430176	57.991630398
41.000000000	42911.279928993	-2.371757575E-13	-5.996441624E-12	-4.677953025E-10	-1.093120039E-10	-9.262143136E-12	-6.563693274E-13	-2.567737960E-13	4.132327376E-6	50.506162088	4.279450434	NaN	4835.000000000	159.000000000	339.305000000	109.709000000	15.798000000	27.705000000	28.932000000	33.405000000	4.473000000	621.000000000	627.200000000	296.700000000	15.047668457	15.131378174	15.129943848	45.950805664	59.590270763
42.000000000	42911.279934722	-2.389984369E-13	-5.982004388E-12	-4.668709863E-10	-1.090968843E-10	-9.222256639E-12	-6.814771187E-13	-2.681046303E-13	4.132327376E-6	50.624375855	4.279416312	NaN	4835.000000000	159.000000000	339.305000000	109.709000000	15.798000000	27.705000000	28.932000000	33.405000000	4.473000000	621.000000000	627.200000000	296.700000000	15.047668457	15.131378174	15.129943848	45.950805664	59.590270763
43.000000000	42911.279940463	-2.522518598E-13	-5.977056090E-12	-4.663597286E-10	-1.090575061E-10	-9.217428036E-12	-6.509134052E-13	-2.662919527E-13	4.132327376E-6	50.595429309	4.276273549	NaN	4835.000000000	159.000000000	339.305000000	109.709000000	15.798000000	27.705000000	28.932000000	33.405000000	4.473000000	621.000000000	627.200000000	296.700000000	15.047210693	15.130584717	15.130187988	45.946594238	60.538651213
44.000000000	42911.279946192	-2.574228265E-13	-6.000036839E-12	-4.663461284E-10	-1.089384832E-10	-9.221672904E-12	-6.429653901E-13	-2.650267701E-13	4.132327376E-6	50.570664695	4.280820831	NaN	4835.000000000	159.000000000	339.305000000	109.709000000	15.798000000	27.705000000	28.932000000	33.405000000	4.473000000	621.000000000	627.200000000	296.700000000	15.047210693	15.130584717	15.130187988	45.946594238	60.538651213
45.000000000	42911.279951933	-2.469119744E-13	-5.973356358E-12	-4.668819220E-10	-1.091094090E-10	-9.224229019E-12	-6.517411394E-13	-2.630953994E-13	4.132327376E-6	50.614736584	4.279025304	NaN	4835.000000000	159.000000000	339.305000000	109.709000000	15.798000000	27.705000000	28.932000000	33.405000000	4.473000000	621.000000000	627.200000000	296.700000000	15.047821045	15.130950928	15.129943848	45.945861816	61.529144170
46.000000000	42911.279957674	-2.582393121E-13	-5.997870169E-12	-4.667425335E-10	-1.090377025E-10	-9.217850441E-12	-6.732007530E-13	-2.736257401E-13	4.132327376E-6	50.634639441	4.280560970	NaN	4835.000000000	159.000000000	339.305000000	109.709000000	15.798000000	27.705000000	28.932000000	33.405000000	4.473000000	621.000000000	627.200000000	296.700000000	15.047821045	15.130950928	15.129943848	45.945861816	61.529144170
47.000000000	42911.279963403	-2.762666398E-13	-5.970248601E-12	-4.670545617E-10	-1.091176316E-10	-9.207255618E-12	-6.753551711E-13	-2.474010309E-13	4.151737357E-6	50.726794290	4.280284999	NaN	4835.000000000	159.000000000	339.305000000	109.709000000	15.798000000	27.705000000	28.932000000	33.405000000	4.473000000	621.000000000	627.200000000	296.700000000	15.046630859	15.130035400	15.130676270	45.950347900	63.486054673
48.000000000	42911.279969132	-2.438321626E-13	-5.985854173E-12	-4.663934794E-10	-1.089808868E-10	-9.203162538E-12	-6.489109922E-13	-2.639314548E-13	4.132327376E-6	50.677522807	4.279589688	NaN	4835.000000000	159.000000000	339.305000000	109.709000000	15.798000000	27.705000000	28.932000000	33.405000000	4.473000000	621.000000000	627.200000000	296.700000000	15.046630859	15.130035400	15.130676270	45.950347900	63.486054673
49.000000000	42911.279974873	-2.563271589E-13	-5.979126482E-12	-4.659265196E-10	-1.089189433E-10	-9.182201006E-12	-6.815578375E-13	-2.619089841E-13	4.132327376E-6	50.742356790	4.277736319	NaN	4835.000000000	159.000000000	339.278000000	109.703000000	15.799000000	27.706000000	28.932000000	33.404000000	4.472000000	620.900000000	627.800000000	296.700000000	15.047302246	15.130615234	15.130035400	45.947906494	64.298210533
50.000000000	42911.279980602	-2.553884838E-13	-5.984100802E-12	-4.656439956E-10	-1.088307292E-10	-9.184172520E-12	-6.953156041E-13	-2.296853300E-13	4.132327376E-6	50.700702168	4.278607699	NaN	4835.000000000	159.000000000	339.278000000	109.703000000	15.799000000	27.706000000	28.932000000	33.404000000	4.472000000	620.900000000	627.800000000	296.700000000	15.047302246	15.130615234	15.130035400	45.947906494	64.298210533
51.000000000	42911.279986343	-2.544462579E-13	-5.968048972E-12	-4.656438013E-10	-1.087926138E-10	-9.157820335E-12	-6.764757482E-13	-2.727088303E-13	4.132327376E-6	50.846575303	4.280104917	NaN	4835.000000000	159.000000000	339.278000000	109.703000000	15.799000000	27.706000000	28.932000000	33.404000000	4.472000000	620.900000000	627.800000000	296.700000000	15.047943115	15.130065918	15.130310059	45.947326660	66.458063904
52.000000000	42911.279992072	-2.511112520E-13	-6.016629035E-12	-4.660872244E-10	-1.088303961E-10	-9.199695693E-12	-6.485464834E-13	-2.915629977E-13	4.132327376E-6	50.663330608	4.282693449	NaN	4835.000000000	159.000000000	339.278000000	109.703000000	15.799000000	27.706000000	28.932000000	33.404000000	4.472000000	620.900000000	627.800000000	296.700000000	15.047943115	15.130065918	15.130310059	45.947326660	66.458063904
53.000000000	42911.279997812	-2.500513360E-13	-6.023205806E-12	-4.670070441E-10	-1.084641751E-10	-9.150672407E-12	-6.568054477E-13	-2.696694593E-13	4.132327376E-6	51.035270782	4.305634036	NaN	4835.000000000	159.000000000	339.278000000	109.703000000	15.799000000	27.706000000	28.932000000	33.404000000	4.472000000	620.900000000	627.800000000	296.700000000	15.047943115	15.130065918	15.130310059	45.947326660	66.458063904
54.000000000	42911.280003553	-2.475554213E-13	-6.013626663E-12	-4.659621022E-10	-1.086936652E-10	-9.195316383E-12	-6.528515250E-13	-2.698869502E-13	4.132327376E-6	50.673852080	4.286929707	NaN	4835.000000000	159.000000000	339.278000000	109.703000000	15.799000000	27.706000000	28.932000000	33.404000000	4.472000000	620.900000000	627.800000000	296.700000000	15.047821045	15.130981445	15.130767822	45.943969727	68.172814116
55.000000000	42911.280009282	-2.617847616E-13	-6.005390629E-12	-4.667601305E-10	-1.085257995E-10	-9.185620146E-12	-6.499424480E-13	-2.657523995E-13	4.132327376E-6	50.814220826	4.300914003	NaN	4835.000000000	159.000000000	339.278000000	109.703000000	15.799000000	27.706000000	28.932000000	33.404000000	4.472000000	620.900000000	627.800000000	296.700000000	15.047821045	15.130981445	15.130767822	45.943969727	68.172814116
56.000000000	42911.280015023	-2.865130008E-13	-5.983858374E-12	-4.661737663E-10	-1.084440523E-10	-9.180080307E-12	-6.729144694E-13	-2.603446430E-13	4.132327376E-6	50.781011785	4.298749043	NaN	4835.000000000	159.000000000	339.278000000	109.703000000	15.799000000	27.706000000	28.932000000	33.404000000	4.472000000	620.900000000	627.800000000	296.700000000	15.046936035	15.131042480	15.130950928	45.944702148	69.092306993
57.000000000	42911.280020752	-2.576076017E-13	-6.013246758E-12	-4.663929243E-10	-1.084516574E-10	-9.168481079E-12	-6.701530064E-13	-2.676647424E-13	4.132327376E-6	50.869159274	4.300468389	NaN	4835.000000000	159.000000000	339.278000000	109.703000000	15.799000000	27.706000000	28.932000000	33.404000000	4.472000000	620.900000000	627.800000000	296.700000000	15.046936035	15.131042480	15.130950928	45.944702148	69.092306993
58.000000000	42911.280026493	-2.307419663E-13	-6.020912501E-12	-4.662785158E-10	-1.083479001E-10	-9.186515264E-12	-6.742429423E-13	-2.611615893E-13	4.132327376E-6	50.756843309	4.303530713	NaN	4835.000000000	159.000000000	339.278000000	109.703000000	15.799000000	27.706000000	28.932000000	33.404000000	4.472000000	620.900000000	627.800000000	296.700000000	15.048828125	15.131683350	15.130249023	45.942962646	70.375816384
59.000000000	42911.280032234	-2.353451364E-13	-6.028921286E-12	-4.659284625E-10	-1.082145068E-10	-9.207455111E-12	-6.500514645E-13	-2.725964528E-13	4.132327376E-6	50.603392237	4.305600758	NaN	4835.000000000	159.000000000	339.278000000	109.703000000	15.799000000	27.706000000	28.932000000	33.404000000	4.472000000	620.900000000	627.800000000	296.700000000	15.048828125	15.131683350	15.130249023	45.942962646	70.375816384
60.000000000	42911.280037963	-2.494058020E-13	-6.039855248E-12	-4.665218767E-10	-1.082871431E-10	-9.202928350E-12	-6.272089510E-13	-2.736192349E-13	4.132327376E-6	50.692764188	4.308192673	NaN	4835.000000000	159.000000000	339.278000000	109.703000000	15.799000000	27.706000000	28.932000000	33.404000000	4.472000000	620.900000000	627.800000000	296.700000000	15.048614502	15.130310059	15.131072998	45.945587158	72.543795449
61.000000000	42911.280043704	-2.394924265E-13	-6.054914816E-12	-4.659840291E-10	-1.082419501E-10	-9.174140614E-12	-6.565216578E-13	-2.615376448E-13	4.132327376E-6	50.793207642	4.305022485	NaN	4835.000000000	159.000000000	339.278000000	109.703000000	15.799000000	27.706000000	28.932000000	33.404000000	4.472000000	620.900000000	627.800000000	296.700000000	15.048614502	15.130310059	15.131072998	45.945587158	72.543795449
62.000000000	42911.280049433	-2.854716517E-13	-6.031914551E-12	-4.651573293E-10	-1.080869352E-10	-9.165179900E-12	-6.716695884E-13	-2.637703153E-13	4.132327376E-6	50.752667641	4.303548142	NaN	4835.000000000	159.000000000	339.278000000	109.703000000	15.799000000	27.706000000	28.932000000	33.404000000	4.472000000	620.900000000	627.800000000	296.700000000	15.048736572	15.131530762	15.131500244	45.944702148	73.312184470
63.000000000	42911.280055174	-2.480751878E-13	-6.033828385E-12	-4.655933417E-10	-1.081351675E-10	-9.194379633E-12	-6.304168884E-13	-3.020828488E-13	4.132327376E-6	50.638907709	4.305660707	NaN	4835.000000000	159.000000000	339.278000000	109.703000000	15.799000000	27.706000000	28.932000000	33.404000000	4.472000000	620.900000000	627.800000000	296.700000000	15.048736572	15.131530762	15.131500244	45.944702148	73.312184470
64.000000000	42911.280060903	-2.718856769E-13	-6.031947077E-12	-4.656227626E-10	-1.082599912E-10	-9.175830235E-12	-6.679843310E-13	-2.643318778E-13	4.132327376E-6	50.744483133	4.300968042	NaN	4835.000000000	159.000000000	339.278000000	109.703000000	15.799000000	27.706000000	28.932000000	33.404000000	4.472000000	620.900000000	627.800000000	296.700000000	15.047637939	15.131530762	15.130310059	45.941955566	74.759185752
65.000000000	42911.280066644	-2.629114645E-13	-6.024280901E-12	-4.655680286E-10	-1.081513143E-10	-9.159984403E-12	-6.581236749E-13	-2.696964017E-13	4.132327376E-6	50.826290537	4.304783826	NaN	4835.000000000	159.000000000	339.278000000	109.703000000	15.799000000	27.706000000	28.932000000	33.404000000	4.472000000	620.900000000	627.800000000	296.700000000	15.047637939	15.131530762	15.130310059	45.941955566	74.759185752
66.000000000	42911.280072373	-2.550314560E-13	-6.045600218E-12	-4.650542729E-10	-1.080731754E-10	-9.188694076E-12	-5.985592881E-13	-3.052929817E-13	4.132327376E-6	50.611574289	4.303142488	NaN	4835.000000000	159.000000000	339.278000000	109.703000000	15.799000000	27.706000000	28.932000000	33.404000000	4.472000000	620.900000000	627.800000000	296.700000000	15.048736572	15.132080078	15.131011963	45.938323975	76.256819355
67.000000000	42911.280078113	-2.708930628E-13	-6.062001595E-12	-4.652170316E-10	-1.081140455E-10	-9.168404751E-12	-6.397029174E-13	-3.008649102E-13	4.132327376E-6	50.741327877	4.303021217	NaN	4835.000000000	159.000000000	339.278000000	109.703000000	15.799000000	27.706000000	28.932000000	33.404000000	4.472000000	620.900000000	627.800000000	296.700000000	15.048736572	15.132080078	15.131011963	45.938323975	76.256819355
68.000000000	42911.280083843	-2.654287109E-13	-6.043504672E-12	-4.651332930E-10	-1.081089107E-10	-9.142219967E-12	-6.705903194E-13	-2.481378818E-13	4.132327376E-6	50.877499630	4.302451018	NaN	4835.000000000	159.000000000	339.278000000	109.703000000	15.799000000	27.706000000	28.932000000	33.404000000	4.472000000	620.900000000	627.800000000	296.700000000	15.046722412	15.131530762	15.130981445	45.942504883	76.924926602
69.000000000	42911.280089583	-2.798836195E-13	-6.014173968E-12	-4.647546237E-10	-1.081192635E-10	-9.137836321E-12	-6.608325540E-13	-2.715892290E-13	4.132327376E-6	50.860467112	4.298536713	NaN	4835.000000000	159.000000000	339.278000000	109.703000000	15.799000000	27.706000000	28.932000000	33.404000000	4.472000000	620.900000000	627.800000000	296.700000000	15.046722412	15.131530762	15.130981445	45.942504883	76.924926602
70.000000000	42911.280095312	-2.401101778E-13	-6.044012513E-12	-4.648195162E-10	-1.079273476E-10	-9.183016327E-12	-6.335027446E-13	-2.709421771E-13	4.132327376E-6	50.617302603	4.306781613	NaN	4835.000000000	159.000000000	339.278000000	109.703000000	15.799000000	27.706000000	28.932000000	33.404000000	4.472000000	620.900000000	627.800000000	296.700000000	15.046722412	15.131530762	15.130981445	45.942504883	76.924926602
71.000000000	42911.280101053	-2.506795498E-13	-6.090322691E-12	-4.642013440E-10	-1.078390710E-10	-9.140805300E-12	-6.488709309E-13	-2.630138945E-13	4.132327376E-6	50.783418833	4.304574768	NaN	4835.000000000	159.000000000	339.278000000	109.703000000	15.799000000	27.706000000	28.932000000	33.404000000	4.472000000	620.900000000	627.800000000	296.700000000	15.049072266	15.130554199	15.130981445	45.938873291	80.077374906
72.000000000	42911.280106782	-2.635795228E-13	-6.006653074E-12	-4.647739416E-10	-1.080472517E-10	-9.146522949E-12	-6.745961212E-13	-2.265278622E-13	4.132327376E-6	50.814276000	4.301580413	NaN	4835.000000000	159.000000000	339.278000000	109.703000000	15.799000000	27.706000000	28.932000000	33.404000000	4.472000000	620.900000000	627.800000000	296.700000000	15.048034668	15.131195068	15.131042480	45.942657471	82.958347165
73.000000000	42911.280112523	-2.286263084E-13	-6.036034086E-12	-4.654274188E-10	-1.080905990E-10	-9.199674876E-12	-6.174885364E-13	-2.829272190E-13	4.132327376E-6	50.591724718	4.305901006	NaN	4835.000000000	159.000000000	339.278000000	109.703000000	15.799000000	27.706000000	28.932000000	33.404000000	4.472000000	620.900000000	627.800000000	296.700000000	15.048034668	15.131195068	15.131042480	45.942657471	82.958347165
74.000000000	42911.280118264	-2.566893909E-13	-6.088774450E-12	-4.658237129E-10	-1.081760237E-10	-9.201238729E-12	-6.220375235E-13	-2.881919692E-13	4.151737357E-6	50.626195738	4.306164130	NaN	4835.000000000	159.000000000	339.278000000	109.703000000	15.799000000	27.706000000	28.932000000	33.404000000	4.472000000	620.900000000	627.800000000	296.700000000	15.048034668	15.131195068	15.131042480	45.942657471	82.958347165
75.000000000	42911.280123993	-2.595986306E-13	-6.073349722E-12	-4.659297947E-10	-1.081925521E-10	-9.194054372E-12	-6.502608239E-13	-2.908768604E-13	4.132327376E-6	50.677293813	4.306486773	NaN	4835.000000000	159.000000000	339.278000000	109.703000000	15.799000000	27.706000000	28.932000000	33.404000000	4.472000000	620.900000000	627.800000000	296.700000000	15.048461914	15.131896973	15.131713867	45.946746826	84.257436480
76.000000000	42911.280129734	-2.725073043E-13	-6.051682159E-12	-4.651179997E-10	-1.081561923E-10	-9.160740742E-12	-6.354972971E-13	-2.726982052E-13	4.151737357E-6	50.772968339	4.300428756	NaN	4835.000000000	159.000000000	339.278000000	109.703000000	15.799000000	27.706000000	28.932000000	33.404000000	4.472000000	620.900000000	627.800000000	296.700000000	15.048461914	15.131896973	15.131713867	45.946746826	84.257436480
77.000000000	42911.280135463	-2.787152291E-13	-6.073111198E-12	-4.654623353E-10	-1.081501069E-10	-9.190516403E-12	-6.280195548E-13	-2.813470214E-13	4.151737357E-6	50.645939239	4.303854601	NaN	4835.000000000	159.000000000	339.278000000	109.703000000	15.799000000	27.706000000	28.932000000	33.404000000	4.472000000	620.900000000	627.800000000	296.700000000	15.047882080	15.130157471	15.131591797	45.947906494	84.458360088
78.000000000	42911.280141204	-2.649116820E-13	-6.083062873E-12	-4.649582663E-10	-1.079822690E-10	-9.180278933E-12	-6.285481033E-13	-2.908845040E-13	4.151737357E-6	50.647509703	4.305876056	NaN	4835.000000000	159.000000000	339.278000000	109.703000000	15.799000000	27.706000000	28.932000000	33.404000000	4.472000000	620.900000000	627.800000000	296.700000000	15.047882080	15.130157471	15.131591797	45.947906494	84.458360088
79.000000000	42911.280146933	-2.753033532E-13	-6.069965277E-12	-4.641684259E-10	-1.079068709E-10	-9.134158707E-12	-6.610437024E-13	-2.602305307E-13	4.132327376E-6	50.816768221	4.301565061	NaN	4835.000000000	159.000000000	339.278000000	109.703000000	15.799000000	27.706000000	28.932000000	33.404000000	4.472000000	620.900000000	627.800000000	296.700000000	15.048156738	15.131866455	15.131530762	45.953125000	85.563649158
80.000000000	42911.280152674	-2.647211877E-13	-6.059928167E-12	-4.636690476E-10	-1.077081202E-10	-9.138057498E-12	-6.427739742E-13	-2.686223910E-13	4.132327376E-6	50.740438840	4.304866214	NaN	4835.000000000	159.000000000	339.278000000	109.703000000	15.799000000	27.706000000	28.932000000	33.404000000	4.472000000	620.900000000	627.800000000	296.700000000	15.048156738	15.131866455	15.131530762	45.953125000	85.563649158
81.000000000	42911.280158403	-2.487376624E-13	-6.066929511E-12	-4.631945383E-10	-1.075744563E-10	-9.130445532E-12	-6.224127659E-13	-2.737061337E-13	4.113008345E-6	50.730770659	4.305804131	NaN	4835.000000000	159.000000000	339.278000000	109.703000000	15.799000000	27.706000000	28.932000000	33.404000000	4.472000000	620.900000000	627.800000000	296.700000000	15.047058105	15.130584717	15.131744385	45.946441650	86.768538806
82.000000000	42911.280164144	-2.506007012E-13	-6.083996154E-12	-4.632426664E-10	-1.077047618E-10	-9.122044266E-12	-6.418812964E-13	-2.774232124E-13	4.132327376E-6	50.782768966	4.301041651	NaN	4835.000000000	159.000000000	339.278000000	109.703000000	15.799000000	27.706000000	28.932000000	33.404000000	4.472000000	620.900000000	627.800000000	296.700000000	15.047058105	15.130584717	15.131744385	45.946441650	86.768538806
83.000000000	42911.280169873	-2.629579226E-13	-6.080802528E-12	-4.634694017E-10	-1.077023262E-10	-9.137313302E-12	-6.346367659E-13	-2.734239430E-13	4.132327376E-6	50.722721925	4.303244117	NaN	4835.000000000	159.000000000	339.278000000	109.703000000	15.799000000	27.706000000	28.932000000	33.404000000	4.472000000	620.900000000	627.800000000	296.700000000	15.049011230	15.130401611	15.131652832	45.945861816	87.923866583
84.000000000	42911.280175602	-2.307699930E-13	-6.074201038E-12	-4.633625428E-10	-1.075692868E-10	-9.138111275E-12	-6.433660028E-13	-2.813973013E-13	4.132327376E-6	50.706598864	4.307572882	NaN	4835.000000000	159.000000000	339.278000000	109.703000000	15.799000000	27.706000000	28.932000000	33.404000000	4.472000000	620.900000000	627.800000000	296.700000000	15.049011230	15.130401611	15.131652832	45.945861816	87.923866583
85.000000000	42911.280181343	-2.524107767E-13	-6.073387453E-12	-4.634403972E-10	-1.076986902E-10	-9.147055509E-12	-6.539716143E-13	-2.726300631E-13	4.132327376E-6	50.665528018	4.303120085	NaN	4835.000000000	159.000000000	339.278000000	109.703000000	15.799000000	27.706000000	28.932000000	33.404000000	4.472000000	620.900000000	627.800000000	296.700000000	15.047912598	15.131256104	15.131958008	45.947326660	87.024882570
86.000000000	42911.280187083	-2.492995502E-13	-6.089771916E-12	-4.627862538E-10	-1.078030581E-10	-9.153511282E-12	-6.183591508E-13	-2.863587731E-13	4.132327376E-6	50.558331059	4.292886136	NaN	4835.000000000	159.000000000	339.278000000	109.703000000	15.799000000	27.706000000	28.932000000	33.404000000	4.472000000	620.900000000	627.800000000	296.700000000	15.047912598	15.131256104	15.131958008	45.947326660	87.024882570
87.000000000	42911.280192812	-2.652614998E-13	-6.083944112E-12	-4.639851559E-10	-1.078747855E-10	-9.147396382E-12	-6.587644384E-13	-2.629963575E-13	4.151737357E-6	50.723193407	4.301145571	2.000000000	4835.000000000	159.000000000	339.278000000	109.703000000	15.799000000	27.706000000	28.932000000	33.404000000	4.472000000	620.900000000	627.800000000	296.700000000	15.048583984	15.130645752	15.131896973	45.949371338	84.856986221
88.000000000	42911.280198553	-2.530063290E-13	-6.074396194E-12	-4.643832541E-10	-1.078638151E-10	-9.142535687E-12	-6.299561025E-13	-2.797240521E-13	4.132327376E-6	50.793704283	4.305273772	2.000000000	4835.000000000	159.000000000	339.278000000	109.703000000	15.799000000	27.706000000	28.932000000	33.404000000	4.472000000	620.900000000	627.800000000	296.700000000	15.048583984	15.130645752	15.131896973	45.949371338	84.856986221
89.000000000	42911.280204282	-2.579984837E-13	-6.098476325E-12	-4.639182927E-10	-1.077545414E-10	-9.144024080E-12	-6.310981468E-13	-2.636735773E-13	4.132327376E-6	50.734587817	4.305324737	2.000000000	4835.000000000	159.000000000	339.278000000	109.703000000	15.799000000	27.706000000	28.932000000	33.404000000	4.472000000	620.900000000	627.800000000	296.700000000	15.048736572	15.131530762	15.131591797	45.951812744	87.021603098
90.000000000	42911.280210023	-2.702408067E-13	-6.071410735E-12	-4.636194206E-10	-1.078015108E-10	-9.130808956E-12	-6.567197957E-13	-2.667537957E-13	4.151737357E-6	50.775284299	4.300676468	2.000000000	4835.000000000	159.000000000	339.278000000	109.703000000	15.799000000	27.706000000	28.932000000	33.404000000	4.472000000	620.900000000	627.800000000	296.700000000	15.048736572	15.131530762	15.131591797	45.951812744	87.021603098
91.000000000	42911.280215752	-2.534450514E-13	-6.085412556E-12	-4.637946971E-10	-1.077679751E-10	-9.115176496E-12	-6.594944859E-13	-2.423801990E-13	4.132327376E-6	50.881592618	4.303641195	2.000000000	4835.000000000	159.000000000	339.278000000	109.703000000	15.799000000	27.706000000	28.932000000	33.404000000	4.472000000	620.900000000	627.800000000	296.700000000	15.048736572	15.131530762	15.131591797	45.951812744	87.021603098
92.000000000	42911.280221493	-2.617308226E-13	-6.124143727E-12	-4.633185502E-10	-1.076431513E-10	-9.121158689E-12	-6.444347009E-13	-2.724925591E-13	4.132327376E-6	50.796019011	4.304208344	2.000000000	4835.000000000	159.000000000	339.278000000	109.703000000	15.799000000	27.706000000	28.932000000	33.404000000	4.472000000	620.900000000	627.800000000	296.700000000	15.049011230	15.131439209	15.131469727	45.944274902	85.734532025
93.000000000	42911.280227222	-2.416545696E-13	-6.146357295E-12	-4.638695261E-10	-1.076424852E-10	-9.185714689E-12	-5.987339530E-13	-2.704802257E-13	4.132327376E-6	50.499013069	4.309353554	2.000000000	4835.000000000	159.000000000	339.278000000	109.703000000	15.799000000	27.706000000	28.932000000	33.404000000	4.472000000	620.900000000	627.800000000	296.700000000	15.049011230	15.131439209	15.131469727	45.944274902	85.734532025
94.000000000	42911.280232963	-2.487910865E-13	-6.141480987E-12	-4.639258144E-10	-1.077679543E-10	-9.167911222E-12	-6.170703054E-13	-2.844527728E-13	4.132327376E-6	50.603218465	4.304858689	2.000000000	4835.000000000	159.000000000	339.278000000	109.703000000	15.799000000	27.706000000	28.932000000	33.404000000	4.472000000	620.900000000	627.800000000	296.700000000	15.047607422	15.131408691	15.130950928	45.941650391	84.168900470
95.000000000	42911.280238704	-2.824194058E-13	-6.114141311E-12	-4.630401340E-10	-1.075192227E-10	-9.137914384E-12	-6.004046544E-13	-2.964220395E-13	4.132327376E-6	50.672408887	4.306580000	2.000000000	4835.000000000	159.000000000	339.278000000	109.703000000	15.799000000	27.706000000	28.932000000	33.404000000	4.472000000	620.900000000	627.800000000	296.700000000	15.048217773	15.130615234	15.131591797	45.935424805	84.253008706
96.000000000	42911.280244433	-2.825991394E-13	-6.099073937E-12	-4.629800432E-10	-1.076321740E-10	-9.084700874E-12	-6.617395434E-13	-2.761530154E-13	4.132327376E-6	50.962607315	4.301502292	2.000000000	4835.000000000	159.000000000	339.278000000	109.703000000	15.799000000	27.706000000	28.932000000	33.404000000	4.472000000	620.900000000	627.800000000	296.700000000	15.048217773	15.130615234	15.131591797	45.935424805	84.253008706
97.000000000	42911.280250162	-2.640514489E-13	-6.115122731E-12	-4.629474304E-10	-1.076675762E-10	-9.128448865E-12	-6.559129867E-13	-2.738582473E-13	4.132327376E-6	50.714796922	4.299785010	2.000000000	4835.000000000	159.000000000	339.278000000	109.703000000	15.799000000	27.706000000	28.932000000	33.404000000	4.472000000	620.900000000	627.800000000	296.700000000	15.048217773	15.130615234	15.131591797	45.935424805	84.253008706
98.000000000	42911.280255903	-2.736155757E-13	-6.122288440E-12	-4.635169470E-10	-1.076444003E-10	-9.174985424E-12	-6.292735430E-13	-2.805723590E-13	4.151737357E-6	50.519638519	4.306001479	2.000000000	4835.000000000	159.000000000	339.278000000	109.703000000	15.799000000	27.706000000	28.932000000	33.404000000	4.472000000	620.900000000	627.800000000	296.700000000	15.048034668	15.130584717	15.132263184	45.937866211	81.596772719
99.000000000	42911.280261632	-2.498826612E-13	-6.136340134E-12	-4.639921780E-10	-1.077893261E-10	-9.149911731E-12	-6.450966606E-13	-2.540763552E-13	4.151737357E-6	50.710016845	4.304620828	2.000000000	4835.000000000	159.000000000	339.278000000	109.703000000	15.799000000	27.706000000	28.932000000	33.404000000	4.472000000	620.900000000	627.800000000	296.700000000	15.048034668	15.130584717	15.132263184	45.937866211	81.596772719
100.000000000	42911.280267373	-2.770412480E-13	-6.126826477E-12	-4.636038498E-10	-1.076681869E-10	-9.129783735E-12	-6.423402392E-13	-2.812905345E-13	4.132327376E-6	50.779280565	4.305857313	2.000000000	4835.000000000	159.000000000	339.278000000	109.703000000	15.799000000	27.706000000	28.932000000	33.404000000	4.472000000	620.900000000	627.800000000	296.700000000	15.048522949	15.131591797	15.132141113	45.940948486	80.498577819
101.000000000	42911.280273102	-2.397626097E-13	-6.145392788E-12	-4.627920824E-10	-1.074185255E-10	-9.134744176E-12	-6.395257587E-13	-2.844422831E-13	4.132327376E-6	50.662839977	4.308307905	2.000000000	4835.000000000	159.000000000	339.278000000	109.703000000	15.799000000	27.706000000	28.932000000	33.404000000	4.472000000	620.900000000	627.800000000	296.700000000	15.048522949	15.131591797	15.132141113	45.940948486	80.498577819
102.000000000	42911.280278831	-2.733719555E-13	-6.144793441E-12	-4.628549488E-10	-1.074456704E-10	-9.135692203E-12	-6.183660897E-13	-2.857223735E-13	4.132327376E-6	50.664464010	4.307804559	2.000000000	4835.000000000	159.000000000	339.278000000	109.703000000	15.799000000	27.706000000	28.932000000	33.404000000	4.472000000	620.900000000	627.800000000	296.700000000	15.048858643	15.130035400	15.131408691	45.950805664	79.398280942
103.000000000	42911.280284572	-2.792101403E-13	-6.143231323E-12	-4.624182981E-10	-1.073565889E-10	-9.097283690E-12	-6.424221506E-13	-2.687151174E-13	4.132327376E-6	50.830370234	4.307311762	2.000000000	4835.000000000	159.000000000	339.278000000	109.703000000	15.799000000	27.706000000	28.932000000	33.404000000	4.472000000	620.900000000	627.800000000	296.700000000	15.048858643	15.130035400	15.131408691	45.950805664	79.398280942
104.000000000	42911.280290301	-2.502485252E-13	-6.149085147E-12	-4.614806037E-10	-1.071123953E-10	-9.113666419E-12	-6.420484261E-13	-2.302823730E-13	4.132327376E-6	50.636108732	4.308377217	2.000000000	4835.000000000	159.000000000	339.278000000	109.703000000	15.799000000	27.706000000	28.932000000	33.404000000	4.472000000	620.900000000	627.800000000	296.700000000	15.049041748	15.130981445	15.132293701	45.957061768	78.487225163
105.000000000	42911.280296042	-2.530084161E-13	-6.175458148E-12	-4.611721283E-10	-1.069848307E-10	-9.127380275E-12	-5.886295683E-13	-3.054095605E-13	4.132327376E-6	50.526231444	4.310631004	2.000000000	4835.000000000	159.000000000	339.278000000	109.703000000	15.799000000	27.706000000	28.932000000	33.404000000	4.472000000	620.900000000	627.800000000	296.700000000	15.049041748	15.130981445	15.132293701	45.957061768	78.487225163
106.000000000	42911.280301771	-2.261628656E-13	-6.178890732E-12	-4.618043725E-10	-1.072018238E-10	-9.143045696E-12	-5.929748879E-13	-2.842585650E-13	4.151737357E-6	50.508811604	4.307803320	2.000000000	4835.000000000	159.000000000	339.278000000	109.703000000	15.799000000	27.706000000	28.932000000	33.404000000	4.472000000	620.900000000	627.800000000	296.700000000	15.049255371	15.131011963	15.132141113	45.965637207	77.323435959
107.000000000	42911.280307512	-2.467348971E-13	-6.154095029E-12	-4.628077921E-10	-1.075198472E-10	-9.121673035E-12	-6.452172780E-13	-2.827244732E-13	4.132327376E-6	50.737160860	4.304394065	2.000000000	4835.000000000	159.000000000	339.278000000	109.703000000	15.799000000	27.706000000	28.932000000	33.404000000	4.472000000	620.900000000	627.800000000	296.700000000	15.049255371	15.131011963	15.132141113	45.965637207	77.323435959
108.000000000	42911.280313241	-2.688575816E-13	-6.151899302E-12	-4.629303607E-10	-1.075683709E-10	-9.131907036E-12	-6.369089284E-13	-2.562235092E-13	4.151737357E-6	50.693722448	4.303591817	2.000000000	4835.000000000	159.000000000	339.278000000	109.703000000	15.799000000	27.706000000	28.932000000	33.404000000	4.472000000	620.900000000	627.800000000	296.700000000	15.048217773	15.129516602	15.131408691	45.963317871	77.444421223
109.000000000	42911.280318981	-2.789202246E-13	-6.125110835E-12	-4.632806638E-10	-1.075640618E-10	-9.150655060E-12	-6.327200049E-13	-2.410280363E-13	4.151737357E-6	50.628142006	4.307020914	2.000000000	4835.000000000	159.000000000	339.987000000	109.913000000	15.790000000	27.686000000	28.915000000	33.387000000	4.471000000	620.700000000	628.300000000	296.900000000	15.048217773	15.129516602	15.131408691	45.963317871	77.444421223
110.000000000	42911.280324711	-2.322406319E-13	-6.146346453E-12	-4.630122952E-10	-1.074722117E-10	-9.161193505E-12	-6.041075301E-13	-2.630410538E-13	4.151737357E-6	50.540608591	4.308204771	2.000000000	4835.000000000	159.000000000	339.987000000	109.913000000	15.790000000	27.686000000	28.915000000	33.387000000	4.471000000	620.700000000	628.300000000	296.900000000	15.047912598	15.129364014	15.131835937	45.970001221	77.730995490
111.000000000	42911.280330451	-2.254758338E-13	-6.164771818E-12	-4.621889538E-10	-1.072848477E-10	-9.110314933E-12	-6.243409110E-13	-2.779846665E-13	4.132327376E-6	50.732489181	4.308054341	2.000000000	4835.000000000	159.000000000	339.987000000	109.913000000	15.790000000	27.686000000	28.915000000	33.387000000	4.471000000	620.700000000	628.300000000	296.900000000	15.047912598	15.129364014	15.131835937	45.970001221	77.730995490
112.000000000	42911.280336181	-2.441648771E-13	-6.172039876E-12	-4.620553107E-10	-1.071850178E-10	-9.133847324E-12	-6.173993608E-13	-2.713108059E-13	4.132327376E-6	50.587150658	4.310819927	2.000000000	4835.000000000	159.000000000	339.987000000	109.913000000	15.790000000	27.686000000	28.915000000	33.387000000	4.471000000	620.700000000	628.300000000	296.900000000	15.047973633	15.129425049	15.132049561	45.970123291	76.873004874
113.000000000	42911.280341910	-2.668641404E-13	-6.184521211E-12	-4.615817173E-10	-1.071328304E-10	-9.082151697E-12	-6.311370697E-13	-2.656968883E-13	4.151737357E-6	50.822947323	4.308499231	2.000000000	4835.000000000	159.000000000	339.987000000	109.913000000	15.790000000	27.686000000	28.915000000	33.387000000	4.471000000	620.700000000	628.300000000	296.900000000	15.047973633	15.129425049	15.132049561	45.970123291	76.873004874
114.000000000	42911.280347650	-2.704747776E-13	-6.165201596E-12	-4.614895965E-10	-1.072097064E-10	-9.088839056E-12	-6.333590336E-13	-2.542423466E-13	4.132327376E-6	50.775417375	4.304550512	2.000000000	4835.000000000	159.000000000	339.987000000	109.913000000	15.790000000	27.686000000	28.915000000	33.387000000	4.471000000	620.700000000	628.300000000	296.900000000	15.047973633	15.129425049	15.132049561	45.970123291	76.873004874
115.000000000	42911.280353380	-2.784047407E-13	-6.123278967E-12	-4.616309557E-10	-1.071725139E-10	-9.120731947E-12	-6.132301156E-13	-2.596380684E-13	4.132327376E-6	50.613367254	4.307363323	2.000000000	4835.000000000	159.000000000	339.987000000	109.913000000	15.790000000	27.686000000	28.915000000	33.387000000	4.471000000	620.700000000	628.300000000	296.900000000	15.048370361	15.129211426	15.131835937	45.970275879	76.454293193
116.000000000	42911.280359120	-2.289012621E-13	-6.170984296E-12	-4.621241168E-10	-1.072378228E-10	-9.096409390E-12	-6.246874220E-13	-2.648528098E-13	4.132327376E-6	50.802915410	4.309338858	2.000000000	4835.000000000	159.000000000	339.987000000	109.913000000	15.790000000	27.686000000	28.915000000	33.387000000	4.471000000	620.700000000	628.300000000	296.900000000	15.048370361	15.129211426	15.131835937	45.970275879	76.454293193
117.000000000	42911.280364861	-2.701264234E-13	-6.140561584E-12	-4.621023009E-10	-1.073336905E-10	-9.116913821E-12	-6.359129260E-13	-2.803613732E-13	4.151737357E-6	50.686264007	4.305286611	2.000000000	4835.000000000	159.000000000	339.987000000	109.913000000	15.790000000	27.686000000	28.915000000	33.387000000	4.471000000	620.700000000	628.300000000	296.900000000	15.048461914	15.128326416	15.131469727	45.975646973	77.368127278
118.000000000	42911.280370590	-2.755989339E-13	-6.154697845E-12	-4.621808491E-10	-1.073071076E-10	-9.121266242E-12	-6.509608933E-13	-2.805264430E-13	4.132327376E-6	50.670689449	4.307085144	2.000000000	4835.000000000	159.000000000	339.987000000	109.913000000	15.790000000	27.686000000	28.915000000	33.387000000	4.471000000	620.700000000	628.300000000	296.900000000	15.048461914	15.128326416	15.131469727	45.975646973	77.368127278
119.000000000	42911.280376319	-2.732494949E-13	-6.168506244E-12	-4.621019123E-10	-1.072827036E-10	-9.132791745E-12	-6.131103654E-13	-2.846592862E-13	4.132327376E-6	50.598100251	4.307329113	2.000000000	4835.000000000	159.000000000	339.987000000	109.913000000	15.790000000	27.686000000	28.915000000	33.387000000	4.471000000	620.700000000	628.300000000	296.900000000	15.046997070	15.127685547	15.130035400	45.973632812	76.869448058
120.000000000	42911.280382060	-2.586321185E-13	-6.180790688E-12	-4.619780392E-10	-1.072454556E-10	-9.112771301E-12	-6.135596588E-13	-2.670628204E-13	4.151737357E-6	50.695669174	4.307670070	2.000000000	4835.000000000	159.000000000	339.987000000	109.913000000	15.790000000	27.686000000	28.915000000	33.387000000	4.471000000	620.700000000	628.300000000	296.900000000	15.046997070	15.127685547	15.130035400	45.973632812	76.869448058
121.000000000	42911.280387789	-2.654520484E-13	-6.176637760E-12	-4.626304062E-10	-1.073739569E-10	-9.140023807E-12	-6.037306072E-13	-2.705337582E-13	4.151737357E-6	50.615886344	4.308590457	2.000000000	4835.000000000	159.000000000	339.987000000	109.913000000	15.790000000	27.686000000	28.915000000	33.387000000	4.471000000	620.700000000	628.300000000	296.900000000	15.048461914	15.127624512	15.131408691	45.969543457	78.229621187
122.000000000	42911.280393530	-2.450274413E-13	-6.175613406E-12	-4.619511995E-10	-1.072042732E-10	-9.111024435E-12	-6.220789400E-13	-2.551912132E-13	4.132327376E-6	50.702443267	4.309074495	2.000000000	4835.000000000	159.000000000	339.987000000	109.913000000	15.790000000	27.686000000	28.915000000	33.387000000	4.471000000	620.700000000	628.300000000	296.900000000	15.048461914	15.127624512	15.131408691	45.969543457	78.229621187
123.000000000	42911.280399259	-2.643407411E-13	-6.189750101E-12	-4.614793825E-10	-1.071084263E-10	-9.101427077E-12	-6.225768599E-13	-2.723008722E-13	4.151737357E-6	50.704068556	4.308525468	2.000000000	4835.000000000	159.000000000	339.987000000	109.913000000	15.790000000	27.686000000	28.915000000	33.387000000	4.471000000	620.700000000	628.300000000	296.900000000	15.047821045	15.127807617	15.130096436	45.968200684	77.276365319
124.000000000	42911.280404988	-2.479437825E-13	-6.165004705E-12	-4.617385918E-10	-1.071758723E-10	-9.122555142E-12	-5.892588392E-13	-2.987184339E-13	4.151737357E-6	50.615050786	4.308232643	2.000000000	4835.000000000	159.000000000	339.987000000	109.913000000	15.790000000	27.686000000	28.915000000	33.387000000	4.471000000	620.700000000	628.300000000	296.900000000	15.047821045	15.127807617	15.130096436	45.968200684	77.276365319
125.000000000	42911.280410729	-2.589556174E-13	-6.178275339E-12	-4.625655692E-10	-1.073516762E-10	-9.094577522E-12	-6.081574046E-13	-2.968946703E-13	4.151737357E-6	50.861688526	4.308880734	2.000000000	4835.000000000	159.000000000	339.987000000	109.913000000	15.790000000	27.686000000	28.915000000	33.387000000	4.471000000	620.700000000	628.300000000	296.900000000	15.046997070	15.127563477	15.130981445	45.963592529	78.141133834
126.000000000	42911.280416458	-2.750555859E-13	-6.176703246E-12	-4.616933502E-10	-1.071761638E-10	-9.087263927E-12	-6.215063186E-13	-2.854947995E-13	4.132327376E-6	50.806640360	4.307798805	2.000000000	4835.000000000	159.000000000	339.987000000	109.913000000	15.790000000	27.686000000	28.915000000	33.387000000	4.471000000	620.700000000	628.300000000	296.900000000	15.046997070	15.127563477	15.130981445	45.963592529	78.141133834
127.000000000	42911.280422187	-2.692094594E-13	-6.184135669E-12	-4.616063642E-10	-1.072142999E-10	-9.089001253E-12	-6.416560534E-13	-2.762040271E-13	4.151737357E-6	50.787358412	4.305455191	2.000000000	4835.000000000	159.000000000	339.987000000	109.913000000	15.790000000	27.686000000	28.915000000	33.387000000	4.471000000	620.700000000	628.300000000	296.900000000	15.047088623	15.126220703	15.130523682	45.967346191	77.660642546
128.000000000	42911.280427928	-2.856107278E-13	-6.188232652E-12	-4.616915183E-10	-1.072146122E-10	-9.106038840E-12	-6.320631952E-13	-2.722420813E-13	4.151737357E-6	50.701685605	4.306236892	2.000000000	4835.000000000	159.000000000	339.987000000	109.913000000	15.790000000	27.686000000	28.915000000	33.387000000	4.471000000	620.700000000	628.300000000	296.900000000	15.047088623	15.126220703	15.130523682	45.967346191	77.660642546
129.000000000	42911.280433657	-2.806541078E-13	-6.166056381E-12	-4.614365556E-10	-1.071899028E-10	-9.078557350E-12	-6.508288916E-13	-2.765352509E-13	4.151737357E-6	50.827079439	4.304850957	2.000000000	4835.000000000	159.000000000	339.987000000	109.913000000	15.790000000	27.686000000	28.915000000	33.387000000	4.471000000	620.700000000	628.300000000	296.900000000	15.046569824	15.124847412	15.129669189	45.966949463	79.198534829
130.000000000	42911.280439398	-2.836420606E-13	-6.146862533E-12	-4.621938665E-10	-1.072744393E-10	-9.106783036E-12	-6.640472677E-13	-2.219109228E-13	4.151737357E-6	50.752704296	4.308518128	2.000000000	4835.000000000	159.000000000	339.987000000	109.913000000	15.790000000	27.686000000	28.915000000	33.387000000	4.471000000	620.700000000	628.300000000	296.900000000	15.046569824	15.124847412	15.129669189	45.966949463	79.198534829
131.000000000	42911.280445139	-2.547901397E-13	-6.209947920E-12	-4.618095073E-10	-1.071413860E-10	-9.124912631E-12	-6.193527679E-13	-2.809141266E-13	4.151737357E-6	50.609745646	4.310281250	2.000000000	4835.000000000	159.000000000	339.987000000	109.913000000	15.790000000	27.686000000	28.915000000	33.387000000	4.471000000	620.700000000	628.300000000	296.900000000	15.046661377	15.125701904	15.130340576	45.965332031	80.135986951
132.000000000	42911.280450868	-2.680550280E-13	-6.198434994E-12	-4.610320459E-10	-1.070171451E-10	-9.136962888E-12	-6.035414139E-13	-2.675655379E-13	4.132327376E-6	50.457909432	4.308020413	2.000000000	4835.000000000	159.000000000	339.987000000	109.913000000	15.790000000	27.686000000	28.915000000	33.387000000	4.471000000	620.700000000	628.300000000	296.900000000	15.046661377	15.125701904	15.130340576	45.965332031	80.135986951
133.000000000	42911.280456609	-2.516344338E-13	-6.210119658E-12	-4.613452120E-10	-1.070891847E-10	-9.107030234E-12	-6.156813340E-13	-2.769793130E-13	4.151737357E-6	50.658139940	4.308046729	2.000000000	4835.000000000	159.000000000	339.987000000	109.913000000	15.790000000	27.686000000	28.915000000	33.387000000	4.471000000	620.700000000	628.300000000	296.900000000	15.046722412	15.125396729	15.129699707	45.960815430	80.100209567
134.000000000	42911.280462326	-2.568038555E-13	-6.218670110E-12	-4.605558435E-10	-1.068169511E-10	-9.086753051E-12	-6.043777675E-13	-2.938271100E-13	4.132327376E-6	50.684313842	4.311636296	2.000000000	4835.000000000	159.000000000	339.987000000	109.913000000	15.790000000	27.686000000	28.915000000	33.387000000	4.471000000	620.700000000	628.300000000	296.900000000	15.046722412	15.125396729	15.129699707	45.960815430	80.100209567
135.000000000	42911.280468067	-2.537670052E-13	-6.202993848E-12	-4.599582659E-10	-1.067479508E-10	-9.089600600E-12	-6.101028970E-13	-2.828249787E-13	4.132327376E-6	50.602692699	4.308825253	2.000000000	4835.000000000	159.000000000	339.987000000	109.913000000	15.790000000	27.686000000	28.915000000	33.387000000	4.471000000	620.700000000	628.300000000	296.900000000	15.046356201	15.125427246	15.129669189	45.965026855	81.035730012
136.000000000	42911.280473796	-2.362589833E-13	-6.220780835E-12	-4.607941806E-10	-1.068312522E-10	-9.129430718E-12	-5.898291295E-13	-2.808039717E-13	4.132327376E-6	50.473484580	4.313290083	2.000000000	4835.000000000	159.000000000	339.987000000	109.913000000	15.790000000	27.686000000	28.915000000	33.387000000	4.471000000	620.700000000	628.300000000	296.900000000	15.046356201	15.125427246	15.129669189	45.965026855	81.035730012
137.000000000	42911.280479537	-2.593112628E-13	-6.192888216E-12	-4.609143067E-10	-1.069847891E-10	-9.092649376E-12	-6.163484436E-13	-2.736829318E-13	4.151737357E-6	50.690869914	4.308222792	2.000000000	4835.000000000	159.000000000	339.987000000	109.913000000	15.790000000	27.686000000	28.915000000	33.387000000	4.471000000	620.700000000	628.300000000	296.900000000	15.045013428	15.125396729	15.128753662	45.960815430	82.614868709
138.000000000	42911.280485266	-2.478490774E-13	-6.199140160E-12	-4.611784288E-10	-1.068996627E-10	-9.098044366E-12	-6.074102267E-13	-2.677164859E-13	4.151737357E-6	50.689841707	4.314124264	2.000000000	4835.000000000	159.000000000	339.987000000	109.913000000	15.790000000	27.686000000	28.915000000	33.387000000	4.471000000	620.700000000	628.300000000	296.900000000	15.045013428	15.125396729	15.128753662	45.960815430	82.614868709
139.000000000	42911.280491007	-2.663277314E-13	-6.182114282E-12	-4.610696269E-10	-1.069625569E-10	-9.077945860E-12	-6.355309616E-13	-2.728141606E-13	4.151737357E-6	50.790083353	4.310570357	2.000000000	4835.000000000	159.000000000	339.987000000	109.913000000	15.790000000	27.686000000	28.915000000	33.387000000	4.471000000	620.700000000	628.300000000	296.900000000	15.045013428	15.125396729	15.128753662	45.960815430	82.614868709
140.000000000	42911.280496736	-2.742824956E-13	-6.185350843E-12	-4.606129922E-10	-1.069845254E-10	-9.089842594E-12	-6.471273712E-13	-2.508914029E-13	4.132327376E-6	50.673373871	4.305416979	2.000000000	4835.000000000	159.000000000	339.987000000	109.913000000	15.790000000	27.686000000	28.915000000	33.387000000	4.471000000	620.700000000	628.300000000	296.900000000	15.045501709	15.125518799	15.128723145	45.954589844	83.615584471
141.000000000	42911.280502465	-2.678080739E-13	-6.197140891E-12	-4.601563297E-10	-1.067235536E-10	-9.082781402E-12	-6.232133950E-13	-2.795290312E-13	4.132327376E-6	50.662490854	4.311666115	2.000000000	4835.000000000	159.000000000	339.987000000	109.913000000	15.790000000	27.686000000	28.915000000	33.387000000	4.471000000	620.700000000	628.300000000	296.900000000	15.045501709	15.125518799	15.128723145	45.954589844	83.615584471
142.000000000	42911.280508206	-2.514499297E-13	-6.206010098E-12	-4.601573567E-10	-1.068047248E-10	-9.086644631E-12	-6.187625282E-13	-2.684222202E-13	4.151737357E-6	50.641064479	4.308398880	2.000000000	4835.000000000	159.000000000	339.987000000	109.913000000	15.790000000	27.686000000	28.915000000	33.387000000	4.471000000	620.700000000	628.300000000	296.900000000	15.045989990	15.124481201	15.128723145	45.960815430	85.260088784
143.000000000	42911.280513935	-2.810644241E-13	-6.188005837E-12	-4.607110526E-10	-1.069732011E-10	-9.065485342E-12	-6.279952144E-13	-2.912956606E-13	4.132327376E-6	50.820340587	4.306789437	2.000000000	4835.000000000	159.000000000	339.987000000	109.913000000	15.790000000	27.686000000	28.915000000	33.387000000	4.471000000	620.700000000	628.300000000	296.900000000	15.045989990	15.124481201	15.128723145	45.960815430	85.260088784
144.000000000	42911.280519664	-2.424449259E-13	-6.227385361E-12	-4.610053450E-10	-1.069152197E-10	-9.095083194E-12	-6.023467857E-13	-2.781076422E-13	4.151737357E-6	50.687314805	4.311877637	2.000000000	4835.000000000	159.000000000	339.987000000	109.913000000	15.790000000	27.686000000	28.915000000	33.387000000	4.471000000	620.700000000	628.300000000	296.900000000	15.044555664	15.123962402	15.128417969	45.956604004	87.193858088
145.000000000	42911.280525405	-2.531515579E-13	-6.218096784E-12	-4.602991321E-10	-1.067891608E-10	-9.094090932E-12	-6.074667137E-13	-3.102194337E-13	4.132327376E-6	50.615189094	4.310354426	2.000000000	4835.000000000	159.000000000	339.987000000	109.913000000	15.790000000	27.686000000	28.915000000	33.387000000	4.471000000	620.700000000	628.300000000	296.900000000	15.044555664	15.123962402	15.128417969	45.956604004	87.193858088
146.000000000	42911.280531134	-2.945874339E-13	-6.207880130E-12	-4.602119519E-10	-1.069063657E-10	-9.070444916E-12	-6.433560824E-13	-2.571425332E-13	4.151737357E-6	50.737527888	4.304813365	2.000000000	4835.000000000	159.000000000	339.987000000	109.913000000	15.790000000	27.686000000	28.915000000	33.387000000	4.471000000	620.700000000	628.300000000	296.900000000	15.045562744	15.124511719	15.129241943	45.952270508	87.031772380
147.000000000	42911.280536875	-2.763492831E-13	-6.195564027E-12	-4.603360193E-10	-1.068526240E-10	-9.061737472E-12	-6.364740549E-13	-2.607603532E-13	4.132327376E-6	50.799973046	4.308139587	2.000000000	4835.000000000	159.000000000	339.987000000	109.913000000	15.790000000	27.686000000	28.915000000	33.387000000	4.471000000	620.700000000	628.300000000	296.900000000	15.045562744	15.124511719	15.129241943	45.952270508	87.031772380
148.000000000	42911.280542616	-2.584220544E-13	-6.236114489E-12	-2.172473451E-10	4.165095768E-10	5.098720890E-10	1.175936987E-10	5.222982637E-12	4.151737357E-6	-0.426082050	-0.521590276	2.000000000	4835.000000000	159.000000000	339.987000000	109.913000000	15.790000000	27.686000000	28.915000000	33.387000000	4.471000000	620.700000000	628.300000000	296.900000000	15.045196533	15.123657227	15.128326416	45.956176758	88.451151167
149.000000000	42911.280548229	1.243782638E-12	3.364753143E-9	2.480896342E-7	5.977943118E-8	2.362597895E-9	1.612022044E-10	1.075201126E-13	4.132327376E-6	105.007134174	4.150083553	2.000000000	4835.000000000	159.000000000	339.987000000	109.913000000	15.790000000	27.686000000	28.915000000	33.387000000	4.471000000	620.700000000	628.300000000	296.900000000	15.045196533	15.123657227	15.128326416	45.956176758	88.451151167
150.000000000	42911.280554259	8.692125253E-13	3.408365590E-9	2.496029197E-7	6.007407904E-8	2.370906360E-9	1.620904244E-10	7.741819474E-14	4.151737357E-6	105.277426331	4.154918788	2.000000000	4835.000000000	159.000000000	339.987000000	109.913000000	15.790000000	27.686000000	28.915000000	33.387000000	4.471000000	620.700000000	628.300000000	296.900000000	15.044403076	15.123199463	15.129211426	45.955444336	90.095850108
151.000000000	42911.280560023	8.327978606E-13	3.418278549E-9	2.503070675E-7	6.022477095E-8	2.372390506E-9	1.613539857E-10	5.286263802E-16	4.132327376E-6	105.508375142	4.156214521	2.000000000	4835.000000000	159.000000000	339.987000000	109.913000000	15.790000000	27.686000000	28.915000000	33.387000000	4.471000000	620.700000000	628.300000000	296.900000000	15.044403076	15.123199463	15.129211426	45.955444336	90.095850108
152.000000000	42911.280565799	7.897175752E-13	3.427050865E-9	2.501274992E-7	6.019372023E-8	2.372879004E-9	1.614414991E-10	5.735960074E-14	4.151737357E-6	105.410979108	4.155375315	2.000000000	4835.000000000	159.000000000	339.987000000	109.913000000	15.790000000	27.686000000	28.915000000	33.387000000	4.471000000	620.700000000	628.300000000	296.900000000	15.044250488	15.122955322	15.128875732	45.949645996	91.373111958
153.000000000	42911.280571539	9.027257023E-13	3.426079864E-9	2.504480676E-7	6.022861498E-8	2.380854847E-9	1.608720102E-10	9.473016582E-14	4.151737357E-6	105.192497550	4.158290336	2.000000000	4835.000000000	159.000000000	339.987000000	109.913000000	15.790000000	27.686000000	28.915000000	33.387000000	4.471000000	620.700000000	628.300000000	296.900000000	15.044250488	15.122955322	15.128875732	45.949645996	91.373111958
154.000000000	42911.280577292	9.815618370E-13	3.421967154E-9	2.496674654E-7	6.001992858E-8	2.363375273E-9	1.607456807E-10	-7.452661399E-14	4.132327376E-6	105.640212197	4.159742793	2.000000000	4835.000000000	159.000000000	339.987000000	109.913000000	15.790000000	27.686000000	28.915000000	33.387000000	4.471000000	620.700000000	628.300000000	296.900000000	15.044311523	15.122802734	15.128051758	45.949920654	92.210506128
155.000000000	42911.280583067	8.878525085E-13	3.423032080E-9	2.489076962E-7	5.992168894E-8	2.366243201E-9	1.602929872E-10	1.609541493E-13	4.113008345E-6	105.191087749	4.153883187	2.000000000	4835.000000000	159.000000000	339.987000000	109.913000000	15.790000000	27.686000000	28.915000000	33.387000000	4.471000000	620.700000000	628.300000000	296.900000000	15.044311523	15.122802734	15.128051758	45.949920654	92.210506128
156.000000000	42911.280588877	-1.514784663E-13	3.422659711E-9	2.490956774E-7	5.991578433E-8	2.362837259E-9	1.605923450E-10	-4.719936261E-14	4.132327376E-6	105.422274196	4.157429969	2.000000000	4835.000000000	159.000000000	339.987000000	109.913000000	15.790000000	27.686000000	28.915000000	33.387000000	4.471000000	620.700000000	628.300000000	296.900000000	15.043579102	15.120910645	15.127075195	45.947326660	92.418377935
157.000000000	42911.280594595	8.842234670E-13	3.415404404E-9	2.490656925E-7	5.990710861E-8	2.362175122E-9	1.611731998E-10	1.690605528E-13	4.132327376E-6	105.439131154	4.157531523	2.000000000	4835.000000000	159.000000000	339.987000000	109.913000000	15.790000000	27.686000000	28.915000000	33.387000000	4.471000000	620.700000000	628.300000000	296.900000000	15.043579102	15.120910645	15.127075195	45.947326660	92.418377935
158.000000000	42911.280600347	9.222957684E-13	3.416821270E-9	2.488505118E-7	5.983638829E-8	2.358919504E-9	1.597723204E-10	9.128372429E-14	4.132327376E-6	105.493430917	4.158849136	2.000000000	4835.000000000	159.000000000	339.987000000	109.913000000	15.790000000	27.686000000	28.915000000	33.387000000	4.471000000	620.700000000	628.300000000	296.900000000	15.043823242	15.122375488	15.126556396	45.951965332	94.319732043
159.000000000	42911.280606088	9.049572073E-13	3.406562810E-9	2.487455788E-7	5.986344576E-8	2.362053664E-9	1.602917382E-10	1.689964900E-13	4.132327376E-6	105.309029433	4.155216521	2.000000000	4835.000000000	159.000000000	339.987000000	109.913000000	15.790000000	27.686000000	28.915000000	33.387000000	4.471000000	620.700000000	628.300000000	296.900000000	15.043823242	15.122375488	15.126556396	45.951965332	94.319732043
160.000000000	42911.280611852	9.335824214E-13	3.412924610E-9	2.489369706E-7	5.988197671E-8	2.360291296E-9	1.589701981E-10	1.114137266E-13	4.132327376E-6	105.468749150	4.157126806	2.000000000	4835.000000000	159.000000000	339.987000000	109.913000000	15.790000000	27.686000000	28.915000000	33.387000000	4.471000000	620.700000000	628.300000000	296.900000000	15.043823242	15.122375488	15.126556396	45.951965332	94.319732043
161.000000000	42911.280617604	9.410382629E-13	3.405310034E-9	2.490915278E-7	5.993611296E-8	2.359855866E-9	1.591307225E-10	5.247224096E-14	4.151737357E-6	105.553704109	4.155950654	2.000000000	4835.000000000	159.000000000	339.987000000	109.913000000	15.790000000	27.686000000	28.915000000	33.387000000	4.471000000	620.700000000	628.300000000	296.900000000	15.044311523	15.121887207	15.127105713	45.949768066	94.980531031
162.000000000	42911.280623380	9.437284938E-13	3.407322424E-9	2.490933184E-7	5.992743013E-8	2.356963069E-9	1.599594207E-10	9.817540796E-14	4.151737357E-6	105.684014177	4.156582685	2.000000000	4835.000000000	159.000000000	339.987000000	109.913000000	15.790000000	27.686000000	28.915000000	33.387000000	4.471000000	620.700000000	628.300000000	296.900000000	15.044311523	15.121887207	15.127105713	45.949768066	94.980531031
163.000000000	42911.280629132	8.330334578E-13	3.407480298E-9	2.487528548E-7	5.984618667E-8	2.363899076E-9	1.585765408E-10	-1.181986095E-13	4.151737357E-6	105.229896332	4.156536424	2.000000000	4835.000000000	159.000000000	339.987000000	109.913000000	15.790000000	27.686000000	28.915000000	33.387000000	4.471000000	620.700000000	628.300000000	296.900000000	15.043090820	15.121673584	15.127807617	45.951812744	94.838394632
164.000000000	42911.280634896	9.071965726E-13	3.409293958E-9	2.481558852E-7	5.967568484E-8	2.350559303E-9	1.590613752E-10	1.005384537E-13	4.132327376E-6	105.573122483	4.158408669	2.000000000	4835.000000000	159.000000000	339.987000000	109.913000000	15.790000000	27.686000000	28.915000000	33.387000000	4.471000000	620.700000000	628.300000000	296.900000000	15.043090820	15.121673584	15.127807617	45.951812744	94.838394632
165.000000000	42911.280640637	8.574322892E-13	3.414778238E-9	2.476230350E-7	5.956820459E-8	2.349039407E-9	1.575231889E-10	-4.670492915E-14	4.132327376E-6	105.414593805	4.156966567	2.000000000	4835.000000000	159.000000000	339.987000000	109.913000000	15.790000000	27.686000000	28.915000000	33.387000000	4.471000000	620.700000000	628.300000000	296.900000000	15.044128418	15.121734619	15.126831055	45.948486328	97.785802958
166.000000000	42911.280646400	9.251861430E-13	3.408492155E-9	2.479733325E-7	5.970270678E-8	2.357272599E-9	1.591124732E-10	1.092388238E-14	4.151737357E-6	105.195017583	4.153468844	2.000000000	4835.000000000	159.000000000	339.987000000	109.913000000	15.790000000	27.686000000	28.915000000	33.387000000	4.471000000	620.700000000	628.300000000	296.900000000	15.044128418	15.121734619	15.126831055	45.948486328	97.785802958
167.000000000	42911.280652141	9.028476751E-13	3.397280235E-9	2.479965815E-7	5.970392181E-8	2.348873540E-9	1.584775644E-10	-4.307783412E-15	4.151737357E-6	105.581069929	4.153773722	2.000000000	4835.000000000	159.000000000	339.987000000	109.913000000	15.790000000	27.686000000	28.915000000	33.387000000	4.471000000	620.700000000	628.300000000	296.900000000	15.043395996	15.121398926	15.127136230	45.943969727	100.208066103
168.000000000	42911.280657905	8.854473144E-13	3.399551529E-9	2.478590773E-7	5.962930061E-8	2.352518180E-9	1.585172271E-10	-1.002316448E-13	4.151737357E-6	105.359048590	4.156665846	2.000000000	4835.000000000	159.000000000	339.987000000	109.913000000	15.790000000	27.686000000	28.915000000	33.387000000	4.471000000	620.700000000	628.300000000	296.900000000	15.043395996	15.121398926	15.127136230	45.943969727	100.208066103
169.000000000	42911.280663762	7.745450331E-13	3.394772463E-9	2.476344889E-7	5.957697624E-8	2.345724059E-9	1.588252585E-10	7.684223944E-14	4.132327376E-6	105.568465275	4.156546783	2.000000000	4835.000000000	159.000000000	339.821000000	109.845000000	15.784000000	27.694000000	28.922000000	33.393000000	4.471000000	620.700000000	628.700000000	297.100000000	15.041778564	15.121856689	15.126403809	45.944122314	101.488600041
170.000000000	42911.280669583	9.316444101E-13	3.403263449E-9	2.473862821E-7	5.951678261E-8	2.346626893E-9	1.576776348E-10	-1.700372224E-14	4.132327376E-6	105.422077487	4.156580233	2.000000000	4835.000000000	159.000000000	339.821000000	109.845000000	15.784000000	27.694000000	28.922000000	33.393000000	4.471000000	620.700000000	628.700000000	297.100000000	15.041778564	15.121856689	15.126403809	45.944122314	101.488600041
171.000000000	42911.280675370	9.292067983E-13	3.398742399E-9	2.470817719E-7	5.946002446E-8	2.343212957E-9	1.580490738E-10	1.242204581E-13	4.132327376E-6	105.445717681	4.155426678	2.000000000	4835.000000000	159.000000000	339.821000000	109.845000000	15.784000000	27.694000000	28.922000000	33.393000000	4.471000000	620.700000000	628.700000000	297.100000000	15.041717529	15.120147705	15.126190186	45.942382812	101.868505440
172.000000000	42911.280681100	8.994260415E-13	3.399371673E-9	2.468873390E-7	5.942034420E-8	2.342333882E-9	1.566026753E-10	1.292959067E-13	4.132327376E-6	105.402283112	4.154929466	2.000000000	4835.000000000	159.000000000	339.821000000	109.845000000	15.784000000	27.694000000	28.922000000	33.393000000	4.471000000	620.700000000	628.700000000	297.100000000	15.041717529	15.120147705	15.126190186	45.942382812	101.868505440
173.000000000	42911.280686863	9.468320225E-13	3.398968662E-9	2.468064508E-7	5.942307624E-8	2.341111749E-9	1.573479957E-10	-2.721575940E-15	4.132327376E-6	105.422755213	4.153377214	2.000000000	4835.000000000	159.000000000	339.821000000	109.845000000	15.784000000	27.694000000	28.922000000	33.393000000	4.471000000	620.700000000	628.700000000	297.100000000	15.042022705	15.120208740	15.126403809	45.942657471	103.651028283
174.000000000	42911.280692604	9.292856198E-13	3.404051707E-9	2.468280798E-7	5.940600545E-8	2.341749239E-9	1.576477560E-10	6.618270927E-14	4.132327376E-6	105.403292396	4.154934807	2.000000000	4835.000000000	159.000000000	339.821000000	109.845000000	15.784000000	27.694000000	28.922000000	33.393000000	4.471000000	620.700000000	628.700000000	297.100000000	15.042022705	15.120208740	15.126403809	45.942657471	103.651028283
175.000000000	42911.280698345	9.044686658E-13	3.391241288E-9	2.466854028E-7	5.933044633E-8	2.340755589E-9	1.580238163E-10	6.465574603E-14	4.151737357E-6	105.387082655	4.157821456	2.000000000	4835.000000000	159.000000000	339.821000000	109.845000000	15.784000000	27.694000000	28.922000000	33.393000000	4.471000000	620.700000000	628.700000000	297.100000000	15.041564941	15.121307373	15.126068115	45.943267822	104.320532154
176.000000000	42911.280704109	9.068950560E-13	3.389531988E-9	2.464170734E-7	5.924160718E-8	2.333796045E-9	1.561985818E-10	1.357309583E-13	4.132327376E-6	105.586378856	4.159527149	2.000000000	4835.000000000	159.000000000	339.821000000	109.845000000	15.784000000	27.694000000	28.922000000	33.393000000	4.471000000	620.700000000	628.700000000	297.100000000	15.041564941	15.121307373	15.126068115	45.943267822	104.320532154
177.000000000	42911.280709850	9.320385175E-13	3.384531100E-9	2.462405178E-7	5.926501245E-8	2.333106153E-9	1.566479030E-10	1.621536428E-13	4.132327376E-6	105.541926357	4.154905358	2.000000000	4835.000000000	159.000000000	339.821000000	109.845000000	15.784000000	27.694000000	28.922000000	33.393000000	4.471000000	620.700000000	628.700000000	297.100000000	15.041229248	15.120056152	15.125610352	45.944274902	105.203378248
178.000000000	42911.280715613	9.237763549E-13	3.391886993E-9	2.464192050E-7	5.927599034E-8	2.334418214E-9	1.565019364E-10	1.702112165E-13	4.132327376E-6	105.559151112	4.157150368	2.000000000	4835.000000000	159.000000000	339.821000000	109.845000000	15.784000000	27.694000000	28.922000000	33.393000000	4.471000000	620.700000000	628.700000000	297.100000000	15.041229248	15.120056152	15.125610352	45.944274902	105.203378248
179.000000000	42911.280721366	9.395466176E-13	3.389236003E-9	2.462451221E-7	5.923770274E-8	2.334211935E-9	1.568488811E-10	4.807897922E-14	4.132327376E-6	105.493900701	4.156898574	2.000000000	4835.000000000	159.000000000	339.821000000	109.845000000	15.784000000	27.694000000	28.922000000	33.393000000	4.471000000	620.700000000	628.700000000	297.100000000	15.040557861	15.119476318	15.124755859	45.944122314	106.475496858
180.000000000	42911.280727199	7.610919273E-13	3.384598379E-9	2.462221573E-7	5.924131230E-8	2.337953164E-9	1.553171619E-10	1.995175096E-15	4.132327376E-6	105.315265113	4.156257648	2.000000000	4835.000000000	159.000000000	339.821000000	109.845000000	15.784000000	27.694000000	28.922000000	33.393000000	4.471000000	620.700000000	628.700000000	297.100000000	15.040557861	15.119476318	15.124755859	45.944122314	106.475496858
181.000000000	42911.280732963	8.813666485E-13	3.391857684E-9	2.463773399E-7	5.930690605E-8	2.335602822E-9	1.567271174E-10	1.802038336E-13	4.151737357E-6	105.487687168	4.154277406	2.000000000	4835.000000000	159.000000000	339.821000000	109.845000000	15.784000000	27.694000000	28.922000000	33.393000000	4.471000000	620.700000000	628.700000000	297.100000000	15.040344238	15.119293213	15.124389648	45.941955566	105.543157706
182.000000000	42911.280738715	8.979367814E-13	3.396655401E-9	2.461234487E-7	5.920436763E-8	2.333614191E-9	1.550821416E-10	1.846935555E-13	4.132327376E-6	105.468783017	4.157183981	2.000000000	4835.000000000	159.000000000	339.821000000	109.845000000	15.784000000	27.694000000	28.922000000	33.393000000	4.471000000	620.700000000	628.700000000	297.100000000	15.040344238	15.119293213	15.124389648	45.941955566	105.543157706
183.000000000	42911.280744433	9.440610186E-13	3.387955694E-9	2.459208872E-7	5.920488988E-8	2.331997706E-9	1.568258162E-10	1.611005844E-13	4.132327376E-6	105.455029639	4.153725946	2.000000000	4835.000000000	159.000000000	339.821000000	109.845000000	15.784000000	27.694000000	28.922000000	33.393000000	4.471000000	620.700000000	628.700000000	297.100000000	15.040344238	15.119293213	15.124389648	45.941955566	105.543157706
184.000000000	42911.280750231	-2.662070325E-13	3.392587322E-9	2.458724566E-7	5.917277335E-8	2.333496285E-9	1.542742184E-10	-5.130120504E-13	4.151737357E-6	105.366551551	4.155161956	2.000000000	4835.000000000	159.000000000	339.821000000	109.845000000	15.784000000	27.694000000	28.922000000	33.393000000	4.471000000	620.700000000	628.700000000	297.100000000	15.041076660	15.119903564	15.124908447	45.940338135	105.512719286
185.000000000	42911.280755961	8.983393998E-13	3.391874559E-9	2.457378798E-7	5.913201306E-8	2.329532789E-9	1.564452040E-10	-2.850739935E-13	4.151737357E-6	105.488053654	4.155750280	2.000000000	4835.000000000	159.000000000	339.821000000	109.845000000	15.784000000	27.694000000	28.922000000	33.393000000	4.471000000	620.700000000	628.700000000	297.100000000	15.041076660	15.119903564	15.124908447	45.940338135	105.512719286
186.000000000	42911.280761701	8.435013755E-13	3.396235737E-9	2.455504102E-7	5.905834044E-8	2.328484960E-9	1.550045786E-10	1.679099161E-13	4.132327376E-6	105.455012338	4.157760079	2.000000000	4835.000000000	159.000000000	339.821000000	109.845000000	15.784000000	27.694000000	28.922000000	33.393000000	4.471000000	620.700000000	628.700000000	297.100000000	15.040008545	15.119567871	15.125061035	45.938049316	106.117454348
187.000000000	42911.280767454	8.830207615E-13	3.393868964E-9	2.449182261E-7	5.891612531E-8	2.319698433E-9	1.541466121E-10	1.853101819E-13	4.132327376E-6	105.581925057	4.157066081	2.000000000	4835.000000000	159.000000000	339.821000000	109.845000000	15.784000000	27.694000000	28.922000000	33.393000000	4.471000000	620.700000000	628.700000000	297.100000000	15.040954590	15.119110107	15.124359131	45.938140869	105.003002981
188.000000000	42911.280773171	9.054144695E-13	3.389260428E-9	2.454200114E-7	5.903233458E-8	2.328139903E-9	1.551455492E-10	5.360641130E-14	4.132327376E-6	105.414632127	4.157382783	2.000000000	4835.000000000	159.000000000	339.821000000	109.845000000	15.784000000	27.694000000	28.922000000	33.393000000	4.471000000	620.700000000	628.700000000	297.100000000	15.040954590	15.119110107	15.124359131	45.938140869	105.003002981
189.000000000	42911.280778912	9.278385352E-13	3.380982383E-9	2.454611092E-7	5.910078116E-8	2.328093940E-9	1.553802920E-10	1.307868202E-13	4.151737357E-6	105.434366292	4.153263365	2.000000000	4835.000000000	159.000000000	339.821000000	109.845000000	15.784000000	27.694000000	28.922000000	33.393000000	4.471000000	620.700000000	628.700000000	297.100000000	15.040954590	15.119110107	15.124359131	45.938140869	105.003002981
190.000000000	42911.280784653	9.291991005E-13	3.388492154E-9	2.460592441E-7	5.920165691E-8	2.334840321E-9	1.551416773E-10	5.207213648E-14	4.151737357E-6	105.385898072	4.156289823	2.000000000	4835.000000000	159.000000000	339.821000000	109.845000000	15.784000000	27.694000000	28.922000000	33.393000000	4.471000000	620.700000000	628.700000000	297.100000000	15.039703369	15.119140625	15.124298096	45.939636230	103.685481181
191.000000000	42911.280790405	9.125475983E-13	3.385341341E-9	2.461277973E-7	5.924232482E-8	2.333472304E-9	1.549865652E-10	1.662130381E-14	4.151737357E-6	105.477059575	4.154593831	2.000000000	4835.000000000	159.000000000	339.821000000	109.845000000	15.784000000	27.694000000	28.922000000	33.393000000	4.471000000	620.700000000	628.700000000	297.100000000	15.039703369	15.119140625	15.124298096	45.939636230	103.685481181
192.000000000	42911.280796146	9.718535655E-13	3.398727300E-9	2.460144515E-7	5.921016211E-8	2.330412752E-9	1.537438649E-10	8.682947617E-14	4.151737357E-6	105.566900671	4.154936293	2.000000000	4835.000000000	159.000000000	339.821000000	109.845000000	15.784000000	27.694000000	28.922000000	33.393000000	4.471000000	620.700000000	628.700000000	297.100000000	15.038452148	15.118957520	15.123260498	45.938140869	104.104117819
193.000000000	42911.280801887	8.713897659E-13	3.393233916E-9	2.452855767E-7	5.902188605E-8	2.323916171E-9	1.528799726E-10	7.022858586E-14	4.171233741E-6	105.548375557	4.155841048	2.000000000	4835.000000000	159.000000000	339.821000000	109.845000000	15.784000000	27.694000000	28.922000000	33.393000000	4.471000000	620.700000000	628.700000000	297.100000000	15.038452148	15.118957520	15.123260498	45.938140869	104.104117819
194.000000000	42911.280807650	9.742395692E-13	3.390716818E-9	2.451288026E-7	5.897483391E-8	2.323318649E-9	1.529241872E-10	1.641069550E-13	4.151737357E-6	105.508042446	4.156498397	2.000000000	4835.000000000	159.000000000	339.821000000	109.845000000	15.784000000	27.694000000	28.922000000	33.393000000	4.471000000	620.700000000	628.700000000	297.100000000	15.040710449	15.118560791	15.124053955	45.934844971	101.856160447
195.000000000	42911.280813414	8.932759588E-13	3.396682269E-9	2.446357144E-7	5.888042054E-8	2.320980519E-9	1.534354310E-10	1.758790325E-13	4.151737357E-6	105.401881818	4.154788843	2.000000000	4835.000000000	159.000000000	339.821000000	109.845000000	15.784000000	27.694000000	28.922000000	33.393000000	4.471000000	620.700000000	628.700000000	297.100000000	15.040710449	15.118560791	15.124053955	45.934844971	101.856160447
196.000000000	42911.280819120	8.492368050E-13	3.387672365E-9	2.448486498E-7	5.887352472E-8	2.322389836E-9	1.544185335E-10	1.571237037E-13	4.151737357E-6	105.429607900	4.158892320	2.000000000	4835.000000000	159.000000000	339.821000000	109.845000000	15.784000000	27.694000000	28.922000000	33.393000000	4.471000000	620.700000000	628.700000000	297.100000000	15.039703369	15.118469238	15.123168945	45.935729980	102.393261906
197.000000000	42911.280824826	9.564067203E-13	3.386771752E-9	2.445495397E-7	5.884453103E-8	2.321281611E-9	1.528547289E-10	1.591991377E-13	4.151737357E-6	105.351086457	4.155858420	2.000000000	4835.000000000	159.000000000	339.821000000	109.845000000	15.784000000	27.694000000	28.922000000	33.393000000	4.471000000	620.700000000	628.700000000	297.100000000	15.039703369	15.118469238	15.123168945	45.935729980	102.393261906
198.000000000	42911.280830637	-2.009208772E-13	3.391783521E-9	2.445844700E-7	5.882148102E-8	2.321345560E-9	1.536610145E-10	-4.433248744E-13	4.151737357E-6	105.363231654	4.158080786	2.000000000	4835.000000000	159.000000000	339.821000000	109.845000000	15.784000000	27.694000000	28.922000000	33.393000000	4.471000000	620.700000000	628.700000000	297.100000000	15.038757324	15.118865967	15.123229980	45.938446045	101.777699060
199.000000000	42911.280836458	8.947716157E-13	3.388370473E-9	2.442469338E-7	5.876327691E-8	2.318538472E-9	1.535301053E-10	1.570992278E-13	4.132327376E-6	105.345214973	4.156455300	2.000000000	4835.000000000	159.000000000	339.821000000	109.845000000	15.784000000	27.694000000	28.922000000	33.393000000	4.471000000	620.700000000	628.700000000	297.100000000	15.038757324	15.118865967	15.123229980	45.938446045	101.777699060
200.000000000	42911.280842199	9.623768796E-13	3.394167170E-9	2.440556273E-7	5.868766806E-8	2.314304526E-9	1.523352972E-10	1.582254835E-13	4.132327376E-6	105.455278051	4.158550430	2.000000000	4835.000000000	159.000000000	339.821000000	109.845000000	15.784000000	27.694000000	28.922000000	33.393000000	4.471000000	620.700000000	628.700000000	297.100000000	15.038787842	15.117767334	15.123535156	45.936584473	99.608926578
201.000000000	42911.280848009	-1.430398904E-13	3.382392144E-9	2.439662978E-7	5.868486497E-8	2.314967995E-9	1.526757609E-10	-2.739606773E-13	4.132327376E-6	105.386466832	4.157226876	2.000000000	4835.000000000	159.000000000	339.821000000	109.845000000	15.784000000	27.694000000	28.922000000	33.393000000	4.471000000	620.700000000	628.700000000	297.100000000	15.038787842	15.117767334	15.123535156	45.936584473	99.608926578
202.000000000	42911.280853831	9.202537820E-13	3.387043535E-9	2.439913089E-7	5.872218978E-8	2.317558812E-9	1.524822490E-10	1.749389614E-13	4.151737357E-6	105.279446511	4.155010395	2.000000000	4835.000000000	159.000000000	339.821000000	109.845000000	15.784000000	27.694000000	28.922000000	33.393000000	4.471000000	620.700000000	628.700000000	297.100000000	15.039001465	15.118652344	15.123718262	45.934417725	100.169749505
203.000000000	42911.280859583	9.346967644E-13	3.379419411E-9	2.440046671E-7	5.869809883E-8	2.310583724E-9	1.538393302E-10	1.615553665E-13	4.151737357E-6	105.603040724	4.156943274	2.000000000	4835.000000000	159.000000000	339.821000000	109.845000000	15.784000000	27.694000000	28.922000000	33.393000000	4.471000000	620.700000000	628.700000000	297.100000000	15.039001465	15.118652344	15.123718262	45.934417725	100.169749505
204.000000000	42911.280865301	8.356976678E-13	3.380259850E-9	2.438749789E-7	5.865974373E-8	2.311110636E-9	1.528317889E-10	1.603254069E-13	4.132327376E-6	105.522849083	4.157450466	2.000000000	4835.000000000	159.000000000	339.821000000	109.845000000	15.784000000	27.694000000	28.922000000	33.393000000	4.471000000	620.700000000	628.700000000	297.100000000	15.038116455	15.116455078	15.122772217	45.931060791	98.762141636
205.000000000	42911.280871100	1.083185665E-13	3.384385439E-9	2.438363254E-7	5.863956076E-8	2.312458003E-9	1.523806359E-10	-1.279947285E-13	4.132327376E-6	105.444650260	4.158222234	2.000000000	4835.000000000	159.000000000	339.821000000	109.845000000	15.784000000	27.694000000	28.922000000	33.393000000	4.471000000	620.700000000	628.700000000	297.100000000	15.038116455	15.116455078	15.122772217	45.931060791	98.762141636
206.000000000	42911.280876840	9.383896655E-13	3.385221437E-9	2.437580804E-7	5.869890884E-8	2.310035274E-9	1.515706866E-10	-1.738258517E-13	4.151737357E-6	105.521367189	4.152685036	2.000000000	4835.000000000	159.000000000	339.821000000	109.845000000	15.784000000	27.694000000	28.922000000	33.393000000	4.471000000	620.700000000	628.700000000	297.100000000	15.037902832	15.117797852	15.122436523	45.936431885	97.884673683
207.000000000	42911.280882662	8.802531187E-13	3.383565206E-9	2.439189757E-7	5.869424413E-8	2.312888547E-9	1.525198440E-10	-9.913869449E-14	4.151737357E-6	105.460756405	4.155756315	2.000000000	4835.000000000	159.000000000	339.821000000	109.845000000	15.784000000	27.694000000	28.922000000	33.393000000	4.471000000	620.700000000	628.700000000	297.100000000	15.037902832	15.117797852	15.122436523	45.936431885	97.884673683
208.000000000	42911.280888507	8.330761753E-13	3.382107927E-9	2.440708045E-7	5.872992404E-8	2.317980696E-9	1.531760552E-10	4.703545157E-14	4.151737357E-6	105.294580256	4.155816791	2.000000000	4835.000000000	159.000000000	339.821000000	109.845000000	15.784000000	27.694000000	28.922000000	33.393000000	4.471000000	620.700000000	628.700000000	297.100000000	15.037902832	15.117797852	15.122436523	45.936431885	97.884673683
209.000000000	42911.280894248	8.905788433E-13	3.384804881E-9	2.436188709E-7	5.861953412E-8	2.310314606E-9	1.514009890E-10	1.777011426E-13	4.151737357E-6	105.448353307	4.155933249	2.000000000	4835.000000000	159.000000000	339.821000000	109.845000000	15.784000000	27.694000000	28.922000000	33.393000000	4.471000000	620.700000000	628.700000000	297.100000000	15.037384033	15.116851807	15.123474121	45.934692383	97.444951972
210.000000000	42911.280900012	9.621691464E-13	3.384847957E-9	2.433129396E-7	5.854239404E-8	2.307764424E-9	1.515077230E-10	-6.121626372E-14	4.132327376E-6	105.432312347	4.156183626	2.000000000	4835.000000000	159.000000000	339.821000000	109.845000000	15.784000000	27.694000000	28.922000000	33.393000000	4.471000000	620.700000000	628.700000000	297.100000000	15.037384033	15.116851807	15.123474121	45.934692383	97.444951972
211.000000000	42911.280905752	9.287877542E-13	3.386717351E-9	2.432703070E-7	5.855082108E-8	2.310331482E-9	1.504163460E-10	6.444022697E-14	4.132327376E-6	105.296711290	4.154857311	2.000000000	4835.000000000	159.000000000	339.821000000	109.845000000	15.784000000	27.694000000	28.922000000	33.393000000	4.471000000	620.700000000	628.700000000	297.100000000	15.037139893	15.117736816	15.122558594	45.930755615	96.053064307
212.000000000	42911.280911493	8.600023905E-13	3.390489667E-9	2.429772223E-7	5.848569273E-8	2.303472302E-9	1.528068089E-10	4.952295694E-14	4.132327376E-6	105.483023240	4.154472846	2.000000000	4835.000000000	159.000000000	339.821000000	109.845000000	15.784000000	27.694000000	28.922000000	33.393000000	4.471000000	620.700000000	628.700000000	297.100000000	15.037139893	15.117736816	15.122558594	45.930755615	96.053064307
213.000000000	42911.280917245	8.793768123E-13	3.389155179E-9	2.430923587E-7	5.851375207E-8	2.305774904E-9	1.506259006E-10	1.541660950E-14	4.132327376E-6	105.427619248	4.154448315	2.000000000	4835.000000000	159.000000000	339.821000000	109.845000000	15.784000000	27.694000000	28.922000000	33.393000000	4.471000000	620.700000000	628.700000000	297.100000000	15.037139893	15.116668701	15.121246338	45.927734375	96.081947015
214.000000000	42911.280922986	8.992345171E-13	3.383619829E-9	2.430230950E-7	5.850878182E-8	2.306284053E-9	1.506577779E-10	-3.797906271E-13	4.132327376E-6	105.374311852	4.153617413	2.000000000	4835.000000000	159.000000000	339.821000000	109.845000000	15.784000000	27.694000000	28.922000000	33.393000000	4.471000000	620.700000000	628.700000000	297.100000000	15.037139893	15.116668701	15.121246338	45.927734375	96.081947015
215.000000000	42911.280928796	-3.379210431E-13	3.380851155E-9	2.428729999E-7	5.846872142E-8	2.307008362E-9	1.504114611E-10	-5.255853803E-13	4.132327376E-6	105.276168011	4.153896204	2.000000000	4835.000000000	159.000000000	339.821000000	109.845000000	15.784000000	27.694000000	28.922000000	33.393000000	4.471000000	620.700000000	628.700000000	297.100000000	15.037414551	15.116668701	15.123535156	45.931213379	96.395482044
216.000000000	42911.280934491	9.088632624E-13	3.382979230E-9	2.432804820E-7	5.855887864E-8	2.311825842E-9	1.512980990E-10	-4.120520385E-13	4.151737357E-6	105.233048950	4.154459369	2.000000000	4835.000000000	159.000000000	339.821000000	109.845000000	15.784000000	27.694000000	28.922000000	33.393000000	4.471000000	620.700000000	628.700000000	297.100000000	15.037414551	15.116668701	15.123535156	45.931213379	96.395482044
217.000000000	42911.280940347	6.413709760E-14	3.380998148E-9	2.431562507E-7	5.853178919E-8	2.303192748E-9	1.506632874E-10	3.950065982E-14	4.151737357E-6	105.573556942	4.154259660	2.000000000	4835.000000000	159.000000000	339.821000000	109.845000000	15.784000000	27.694000000	28.922000000	33.393000000	4.471000000	620.700000000	628.700000000	297.100000000	15.037017822	15.115966797	15.121673584	45.928741455	96.517776178
218.000000000	42911.280946111	9.325076518E-13	3.384324376E-9	2.430387553E-7	5.850301932E-8	2.302417368E-9	1.510481046E-10	1.906787580E-13	4.151737357E-6	105.558079406	4.154294226	2.000000000	4835.000000000	159.000000000	339.821000000	109.845000000	15.784000000	27.694000000	28.922000000	33.393000000	4.471000000	620.700000000	628.700000000	297.100000000	15.037017822	15.115966797	15.121673584	45.928741455	96.517776178
219.000000000	42911.280951863	9.120710914E-13	3.383374692E-9	2.430325310E-7	5.849157603E-8	2.305331259E-9	1.508946024E-10	1.651202639E-13	4.151737357E-6	105.421956179	4.155000557	2.000000000	4835.000000000	159.000000000	339.821000000	109.845000000	15.784000000	27.694000000	28.922000000	33.393000000	4.471000000	620.700000000	628.700000000	297.100000000	15.037597656	15.116546631	15.121948242	45.934997559	96.652322107
220.000000000	42911.280957685	7.974942321E-13	3.381595670E-9	2.427912023E-7	5.842516515E-8	2.301528079E-9	1.496773538E-10	-1.462980805E-13	4.132327376E-6	105.491305731	4.155592913	2.000000000	4835.000000000	159.000000000	339.821000000	109.845000000	15.784000000	27.694000000	28.922000000	33.393000000	4.471000000	620.700000000	628.700000000	297.100000000	15.037597656	15.116546631	15.121948242	45.934997559	96.652322107
221.000000000	42911.280963495	8.806188201E-13	3.377865987E-9	2.425190075E-7	5.836469796E-8	2.296096424E-9	1.494848550E-10	1.714199122E-13	4.151737357E-6	105.622309672	4.155234517	2.000000000	4835.000000000	159.000000000	339.821000000	109.845000000	15.784000000	27.694000000	28.922000000	33.393000000	4.471000000	620.700000000	628.700000000	297.100000000	15.036499023	15.114929199	15.121948242	45.925689697	97.424885886
222.000000000	42911.280969259	8.358080395E-13	3.373568314E-9	2.426218657E-7	5.842972328E-8	2.300695190E-9	1.508450587E-10	1.637101777E-13	4.151737357E-6	105.455892972	4.152370610	2.000000000	4835.000000000	159.000000000	339.821000000	109.845000000	15.784000000	27.694000000	28.922000000	33.393000000	4.471000000	620.700000000	628.700000000	297.100000000	15.036499023	15.114929199	15.121948242	45.925689697	97.424885886
223.000000000	42911.280975069	7.997647683E-13	3.372918389E-9	2.428369896E-7	5.845124562E-8	2.301334012E-9	1.494536300E-10	-6.589331538E-14	4.151737357E-6	105.520097620	4.154522064	2.000000000	4835.000000000	159.000000000	339.821000000	109.845000000	15.784000000	27.694000000	28.922000000	33.393000000	4.471000000	620.700000000	628.700000000	297.100000000	15.037109375	15.115966797	15.120758057	45.925537109	98.720471908
224.000000000	42911.280980799	8.484770503E-13	3.380869140E-9	2.428880350E-7	5.845223683E-8	2.304282765E-9	1.488694723E-10	-5.808297365E-14	4.151737357E-6	105.407217703	4.155324898	2.000000000	4835.000000000	159.000000000	339.821000000	109.845000000	15.784000000	27.694000000	28.922000000	33.393000000	4.471000000	620.700000000	628.700000000	297.100000000	15.037109375	15.115966797	15.120758057	45.925537109	98.720471908
225.000000000	42911.280986539	8.510044882E-13	3.377271129E-9	2.422582099E-7	5.829556571E-8	2.298805368E-9	1.494722679E-10	1.198843000E-13	4.132327376E-6	105.384393685	4.155688464	2.000000000	4835.000000000	159.000000000	339.821000000	109.845000000	15.784000000	27.694000000	28.922000000	33.393000000	4.471000000	620.700000000	628.700000000	297.100000000	15.037658691	15.116760254	15.120788574	45.922790527	97.686864113
226.000000000	42911.280992303	9.491243512E-13	3.380863589E-9	2.420002545E-7	5.825136640E-8	2.299630264E-9	1.494106228E-10	-5.345929184E-14	4.132327376E-6	105.234418894	4.154413355	2.000000000	4835.000000000	159.000000000	339.821000000	109.845000000	15.784000000	27.694000000	28.922000000	33.393000000	4.471000000	620.700000000	628.700000000	297.100000000	15.037658691	15.116760254	15.120788574	45.922790527	97.686864113
227.000000000	42911.280998079	9.587865441E-13	3.384128533E-9	2.425946377E-7	5.835174122E-8	2.294564094E-9	1.486414741E-10	1.575723330E-13	4.151737357E-6	105.725805749	4.157453277	2.000000000	4835.000000000	159.000000000	339.821000000	109.845000000	15.784000000	27.694000000	28.922000000	33.393000000	4.471000000	620.700000000	628.700000000	297.100000000	15.036956787	15.116333008	15.120666504	45.926391602	98.365335270
228.000000000	42911.281003843	8.005402981E-13	3.381447788E-9	2.425414891E-7	5.837096140E-8	2.301443480E-9	1.497895141E-10	7.304631889E-14	4.151737357E-6	105.386680663	4.155173794	2.000000000	4835.000000000	159.000000000	339.821000000	109.845000000	15.784000000	27.694000000	28.922000000	33.393000000	4.471000000	620.700000000	628.700000000	297.100000000	15.036956787	15.116333008	15.120666504	45.926391602	98.365335270
229.000000000	42911.281009583	8.964497981E-13	3.384555969E-9	2.423043952E-7	5.827583394E-8	2.300018842E-9	1.486464146E-10	1.019301627E-13	4.132327376E-6	105.348874011	4.157888079	2.000000000	4835.000000000	159.000000000	339.821000000	109.845000000	15.784000000	27.694000000	28.922000000	33.393000000	4.471000000	620.700000000	628.700000000	297.100000000	15.035705566	15.115234375	15.120788574	45.925994873	100.674914183
230.000000000	42911.281015324	9.374675515E-13	3.379298397E-9	2.419918701E-7	5.825836524E-8	2.295577728E-9	1.476508221E-10	1.663930224E-13	4.151737357E-6	105.416543799	4.153770348	2.000000000	4835.000000000	159.000000000	340.030000000	109.904000000	15.781000000	27.689000000	28.918000000	33.394000000	4.476000000	621.200000000	629.100000000	297.300000000	15.035705566	15.115234375	15.120788574	45.925994873	100.674914183
231.000000000	42911.281021088	9.771610604E-13	3.382602642E-9	2.421346608E-7	5.827712712E-8	2.290548196E-9	1.478018125E-10	7.598678360E-14	4.151737357E-6	105.710354070	4.154883274	2.000000000	4835.000000000	159.000000000	340.030000000	109.904000000	15.781000000	27.689000000	28.918000000	33.394000000	4.476000000	621.200000000	629.100000000	297.300000000	15.035705566	15.115234375	15.120788574	45.925994873	100.674914183
232.000000000	42911.281026829	8.992221572E-13	3.380037139E-9	2.426890831E-7	5.841334882E-8	2.300876156E-9	1.496580360E-10	4.860031106E-14	4.151737357E-6	105.476812557	4.154685323	2.000000000	4835.000000000	159.000000000	340.030000000	109.904000000	15.781000000	27.689000000	28.918000000	33.394000000	4.476000000	621.200000000	629.100000000	297.300000000	15.035583496	15.116119385	15.121093750	45.929626465	102.069644023
233.000000000	42911.281032593	8.933796628E-13	3.378033187E-9	2.428049584E-7	5.840100314E-8	2.302039004E-9	1.496288926E-10	1.220434344E-13	4.151737357E-6	105.473868146	4.157547735	2.000000000	4835.000000000	159.000000000	340.030000000	109.904000000	15.781000000	27.689000000	28.918000000	33.394000000	4.476000000	621.200000000	629.100000000	297.300000000	15.035583496	15.116119385	15.121093750	45.929626465	102.069644023
234.000000000	42911.281038333	8.936552128E-13	3.378994196E-9	2.422590342E-7	5.824679405E-8	2.295931445E-9	1.484327244E-10	6.842664862E-14	4.151737357E-6	105.516667189	4.159182288	2.000000000	4835.000000000	159.000000000	340.030000000	109.904000000	15.781000000	27.689000000	28.918000000	33.394000000	4.476000000	621.200000000	629.100000000	297.300000000	15.036743164	15.114868164	15.120513916	45.929626465	100.852116671
235.000000000	42911.281044178	8.559517027E-13	3.381519731E-9	2.416286122E-7	5.814907311E-8	2.293623957E-9	1.468053734E-10	8.189323921E-14	4.132327376E-6	105.347963186	4.155330417	2.000000000	4835.000000000	159.000000000	340.030000000	109.904000000	15.781000000	27.689000000	28.918000000	33.394000000	4.476000000	621.200000000	629.100000000	297.300000000	15.036743164	15.114868164	15.120513916	45.929626465	100.852116671
236.000000000	42911.281049919	9.422813007E-13	3.382616409E-9	2.414759877E-7	5.811330794E-8	2.290120094E-9	1.473729749E-10	1.413227852E-13	4.151737357E-6	105.442499862	4.155261440	2.000000000	4835.000000000	159.000000000	340.030000000	109.904000000	15.781000000	27.689000000	28.918000000	33.394000000	4.476000000	621.200000000	629.100000000	297.300000000	15.035858154	15.114440918	15.120727539	45.924987793	101.985669796
237.000000000	42911.281055648	9.214506328E-13	3.382912617E-9	2.418260294E-7	5.822083793E-8	2.290390544E-9	1.486531176E-10	9.724696329E-15	4.151737357E-6	105.582879771	4.153599261	2.000000000	4835.000000000	159.000000000	340.030000000	109.904000000	15.781000000	27.689000000	28.918000000	33.394000000	4.476000000	621.200000000	629.100000000	297.300000000	15.035858154	15.114440918	15.120727539	45.924987793	101.985669796
238.000000000	42911.281061389	8.389177482E-13	3.377410795E-9	2.420590874E-7	5.827191529E-8	2.291918211E-9	1.476919836E-10	5.313208979E-14	4.151737357E-6	105.614190900	4.153957978	2.000000000	4835.000000000	159.000000000	340.030000000	109.904000000	15.781000000	27.689000000	28.918000000	33.394000000	4.476000000	621.200000000	629.100000000	297.300000000	15.035614014	15.114593506	15.119812012	45.922210693	101.706635245
239.000000000	42911.281067130	9.266296497E-13	3.387079506E-9	2.420424039E-7	5.828291805E-8	2.292338541E-9	1.482935025E-10	1.065254384E-14	4.132327376E-6	105.587547191	4.152887536	2.000000000	4835.000000000	159.000000000	340.030000000	109.904000000	15.781000000	27.689000000	28.918000000	33.394000000	4.476000000	621.200000000	629.100000000	297.300000000	15.035614014	15.114593506	15.119812012	45.922210693	101.706635245
240.000000000	42911.281072894	9.163811203E-13	3.377632618E-9	2.421810734E-7	5.829089034E-8	2.296093982E-9	1.483741602E-10	5.982876277E-14	4.151737357E-6	105.475244200	4.154698479	2.000000000	4835.000000000	159.000000000	340.030000000	109.904000000	15.781000000	27.689000000	28.918000000	33.394000000	4.476000000	621.200000000	629.100000000	297.300000000	15.035430908	15.115264893	15.119842529	45.928588867	101.718791766
241.000000000	42911.281078623	8.358717364E-13	3.383821223E-9	2.424769718E-7	5.837489070E-8	2.299878954E-9	1.483771439E-10	1.226055797E-13	4.151737357E-6	105.430319025	4.153788880	2.000000000	4835.000000000	159.000000000	340.030000000	109.904000000	15.781000000	27.689000000	28.918000000	33.394000000	4.476000000	621.200000000	629.100000000	297.300000000	15.035430908	15.115264893	15.119842529	45.928588867	101.718791766
242.000000000	42911.281084456	9.103336574E-13	3.388505698E-9	2.422999046E-7	5.830334970E-8	2.296200785E-9	1.478085709E-10	8.718017492E-14	4.151737357E-6	105.522089427	4.155848777	2.000000000	4835.000000000	159.000000000	340.030000000	109.904000000	15.781000000	27.689000000	28.918000000	33.394000000	4.476000000	621.200000000	629.100000000	297.300000000	15.036254883	15.115173340	15.119689941	45.925140381	102.092034638
243.000000000	42911.281090197	9.335335239E-13	3.386927405E-9	2.419448037E-7	5.823697080E-8	2.293543133E-9	1.469286776E-10	1.173961915E-13	4.151737357E-6	105.489537234	4.154488127	2.000000000	4835.000000000	159.000000000	340.030000000	109.904000000	15.781000000	27.689000000	28.918000000	33.394000000	4.476000000	621.200000000	629.100000000	297.300000000	15.036254883	15.115173340	15.119689941	45.925140381	102.092034638
244.000000000	42911.281095937	8.985809059E-13	3.386473546E-9	2.419802456E-7	5.823298821E-8	2.295068580E-9	1.484049966E-10	8.406241605E-14	4.151737357E-6	105.434864895	4.155380877	2.000000000	4835.000000000	159.000000000	340.030000000	109.904000000	15.781000000	27.689000000	28.918000000	33.394000000	4.476000000	621.200000000	629.100000000	297.300000000	15.035369873	15.114746094	15.119873047	45.924377441	103.720998953
245.000000000	42911.281101701	8.752441588E-13	3.382988778E-9	2.415657718E-7	5.813786430E-8	2.295543977E-9	1.483024398E-10	-1.263236884E-13	4.151737357E-6	105.232473974	4.155050667	2.000000000	4835.000000000	159.000000000	340.030000000	109.904000000	15.781000000	27.689000000	28.918000000	33.394000000	4.476000000	621.200000000	629.100000000	297.300000000	15.035369873	15.114746094	15.119873047	45.924377441	103.720998953
246.000000000	42911.281107442	9.010769561E-13	3.382126801E-9	2.421718079E-7	5.830617766E-8	2.294146206E-9	1.472979932E-10	-1.428058518E-13	4.151737357E-6	105.560756011	4.153450246	2.000000000	4835.000000000	159.000000000	340.030000000	109.904000000	15.781000000	27.689000000	28.918000000	33.394000000	4.476000000	621.200000000	629.100000000	297.300000000	15.034210205	15.114776611	15.119628906	45.918884277	102.641603598
247.000000000	42911.281113229	8.676657483E-13	3.379971636E-9	2.415449671E-7	5.812501058E-8	2.291246748E-9	1.486976375E-10	1.731168648E-13	4.151737357E-6	105.420757219	4.155611581	2.000000000	4835.000000000	159.000000000	340.030000000	109.904000000	15.781000000	27.689000000	28.918000000	33.394000000	4.476000000	621.200000000	629.100000000	297.300000000	15.034210205	15.114776611	15.119628906	45.918884277	102.641603598
248.000000000	42911.281118970	8.397784963E-13	3.383403335E-9	2.415426650E-7	5.812491111E-8	2.289262335E-9	1.469918492E-10	1.583567533E-13	4.151737357E-6	105.511133984	4.155579086	2.000000000	4835.000000000	159.000000000	340.030000000	109.904000000	15.781000000	27.689000000	28.918000000	33.394000000	4.476000000	621.200000000	629.100000000	297.300000000	15.035766602	15.114379883	15.119323730	45.918884277	104.171242544
249.000000000	42911.281124722	9.371199563E-13	3.383366920E-9	2.412303672E-7	5.802314007E-8	2.286573375E-9	1.466103905E-10	-3.745605104E-14	4.151737357E-6	105.498633836	4.157485564	2.000000000	4835.000000000	159.000000000	340.030000000	109.904000000	15.781000000	27.689000000	28.918000000	33.394000000	4.476000000	621.200000000	629.100000000	297.300000000	15.035766602	15.114379883	15.119323730	45.918884277	104.171242544
250.000000000	42911.281130544	8.735661933E-13	3.386320335E-9	2.410240825E-7	5.803013181E-8	2.284537670E-9	1.470416428E-10	4.849192472E-14	4.151737357E-6	105.502345450	4.153429864	2.000000000	4835.000000000	159.000000000	340.030000000	109.904000000	15.781000000	27.689000000	28.918000000	33.394000000	4.476000000	621.200000000	629.100000000	297.300000000	15.034881592	15.114318848	15.118988037	45.924530029	102.786982389
251.000000000	42911.281136262	8.498285626E-13	3.379845959E-9	2.411933337E-7	5.805523173E-8	2.287888545E-9	1.460456339E-10	1.769870058E-13	4.151737357E-6	105.421802232	4.154549496	2.000000000	4835.000000000	159.000000000	340.030000000	109.904000000	15.781000000	27.689000000	28.918000000	33.394000000	4.476000000	621.200000000	629.100000000	297.300000000	15.034881592	15.114318848	15.118988037	45.924530029	102.786982389
252.000000000	42911.281142025	8.722466109E-13	3.382968350E-9	2.412852496E-7	5.804228564E-8	2.288893297E-9	1.466753385E-10	1.286244060E-13	4.151737357E-6	105.415682706	4.157059752	2.000000000	4835.000000000	159.000000000	340.030000000	109.904000000	15.781000000	27.689000000	28.918000000	33.394000000	4.476000000	621.200000000	629.100000000	297.300000000	15.034210205	15.111846924	15.118286133	45.913208008	102.825270717
253.000000000	42911.281147778	8.886035896E-13	3.381366076E-9	2.410692446E-7	5.797211244E-8	2.289292311E-9	1.471620187E-10	1.251682406E-13	4.151737357E-6	105.302954708	4.158365711	2.000000000	4835.000000000	159.000000000	340.030000000	109.904000000	15.781000000	27.689000000	28.918000000	33.394000000	4.476000000	621.200000000	629.100000000	297.300000000	15.034210205	15.111846924	15.118286133	45.913208008	102.825270717
254.000000000	42911.281153611	8.792027978E-13	3.380246305E-9	2.407533088E-7	5.793366142E-8	2.282918299E-9	1.468849486E-10	-6.026066825E-14	4.132327376E-6	105.458574214	4.155672245	2.000000000	4835.000000000	159.000000000	340.030000000	109.904000000	15.781000000	27.689000000	28.918000000	33.394000000	4.476000000	621.200000000	629.100000000	297.300000000	15.034210205	15.111846924	15.118286133	45.913208008	102.825270717
255.000000000	42911.281159340	9.144093902E-13	3.384876157E-9	2.403638462E-7	5.787461532E-8	2.278209399E-9	1.455917747E-10	1.106742261E-13	4.132327376E-6	105.505598509	4.153182614	2.000000000	4835.000000000	159.000000000	340.030000000	109.904000000	15.781000000	27.689000000	28.918000000	33.394000000	4.476000000	621.200000000	629.100000000	297.300000000	15.034545898	15.115203857	15.119781494	45.915557861	100.614291783
256.000000000	42911.281165093	9.099437783E-13	3.378900271E-9	2.405539590E-7	5.788566781E-8	2.279877176E-9	1.461936822E-10	6.566535510E-14	4.151737357E-6	105.511806300	4.155673901	2.000000000	4835.000000000	159.000000000	340.030000000	109.904000000	15.781000000	27.689000000	28.918000000	33.394000000	4.476000000	621.200000000	629.100000000	297.300000000	15.034851074	15.114196777	15.119293213	45.919769287	100.459263165
257.000000000	42911.281170856	9.255890325E-13	3.383372471E-9	2.404413522E-7	5.789577529E-8	2.284144429E-9	1.480585099E-10	1.655749648E-13	4.132327376E-6	105.265389129	4.153003410	2.000000000	4835.000000000	159.000000000	340.030000000	109.904000000	15.781000000	27.689000000	28.918000000	33.394000000	4.476000000	621.200000000	629.100000000	297.300000000	15.034851074	15.114196777	15.119293213	45.919769287	100.459263165
258.000000000	42911.281176597	8.950556767E-13	3.376724900E-9	2.404156021E-7	5.783097023E-8	2.281095535E-9	1.474807776E-10	1.672720122E-13	4.132327376E-6	105.394797560	4.157211977	2.000000000	4835.000000000	159.000000000	340.030000000	109.904000000	15.781000000	27.689000000	28.918000000	33.394000000	4.476000000	621.200000000	629.100000000	297.300000000	15.033782959	15.113891602	15.118682861	45.918731689	101.025822982
259.000000000	42911.281182419	7.243742823E-13	3.381128932E-9	2.401934580E-7	5.778317558E-8	2.275161837E-9	1.460572080E-10	-8.549076432E-14	4.132327376E-6	105.572031904	4.156806122	2.000000000	4835.000000000	159.000000000	340.030000000	109.904000000	15.781000000	27.689000000	28.918000000	33.394000000	4.476000000	621.200000000	629.100000000	297.300000000	15.033782959	15.113891602	15.118682861	45.918731689	101.025822982
260.000000000	42911.281188148	8.416711880E-13	3.379433178E-9	2.398382719E-7	5.770271372E-8	2.273987443E-9	1.458726473E-10	-8.770296026E-15	4.132327376E-6	105.470358981	4.156447010	2.000000000	4835.000000000	159.000000000	340.030000000	109.904000000	15.781000000	27.689000000	28.918000000	33.394000000	4.476000000	621.200000000	629.100000000	297.300000000	15.033782959	15.113891602	15.118682861	45.918731689	101.025822982
261.000000000	42911.281194074	8.302557318E-13	3.375829838E-9	2.400219330E-7	5.779356727E-8	2.277028122E-9	1.451434112E-10	2.493989580E-14	4.132327376E-6	105.410175095	4.153090808	2.000000000	4835.000000000	159.000000000	340.030000000	109.904000000	15.781000000	27.689000000	28.918000000	33.394000000	4.476000000	621.200000000	629.100000000	297.300000000	15.033996582	15.112762451	15.118316650	45.917114258	101.667696685
262.000000000	42911.281199826	8.733463171E-13	3.376918079E-9	2.399911807E-7	5.779459400E-8	2.271914878E-9	1.454955878E-10	1.287465143E-13	4.151737357E-6	105.633878708	4.152484932	2.000000000	4835.000000000	159.000000000	340.030000000	109.904000000	15.781000000	27.689000000	28.918000000	33.394000000	4.476000000	621.200000000	629.100000000	297.300000000	15.033996582	15.112762451	15.118316650	45.917114258	101.667696685
263.000000000	42911.281205556	8.826301777E-13	3.373314739E-9	2.403161830E-7	5.787151025E-8	2.276755451E-9	1.472539590E-10	1.771028392E-13	4.151737357E-6	105.552040236	4.152581847	2.000000000	4835.000000000	159.000000000	340.030000000	109.904000000	15.781000000	27.689000000	28.918000000	33.394000000	4.476000000	621.200000000	629.100000000	297.300000000	15.034118652	15.114166260	15.117675781	45.914978027	100.054413339
264.000000000	42911.281211319	8.265321478E-13	3.374735380E-9	2.404795509E-7	5.789190638E-8	2.284627820E-9	1.449920739E-10	8.654193898E-14	4.151737357E-6	105.259836550	4.153940783	2.000000000	4835.000000000	159.000000000	340.030000000	109.904000000	15.781000000	27.689000000	28.918000000	33.394000000	4.476000000	621.200000000	629.100000000	297.300000000	15.034118652	15.114166260	15.117675781	45.914978027	100.054413339
265.000000000	42911.281217072	9.089333561E-13	3.368371360E-9	2.408010857E-7	5.798214175E-8	2.285269973E-9	1.448428322E-10	2.585916033E-14	4.151737357E-6	105.370957723	4.153021576	2.000000000	4835.000000000	159.000000000	340.030000000	109.904000000	15.781000000	27.689000000	28.918000000	33.394000000	4.476000000	621.200000000	629.100000000	297.300000000	15.033569336	15.113616943	15.117523193	45.912780762	99.813596764
266.000000000	42911.281222917	8.636211863E-13	3.382230940E-9	2.403674557E-7	5.780473700E-8	2.273296218E-9	1.447539866E-10	1.290388017E-13	4.132327376E-6	105.735211197	4.158265710	2.000000000	4835.000000000	159.000000000	340.030000000	109.904000000	15.781000000	27.689000000	28.918000000	33.394000000	4.476000000	621.200000000	629.100000000	297.300000000	15.033569336	15.113616943	15.117523193	45.912780762	99.813596764
267.000000000	42911.281228646	8.889970466E-13	3.369667434E-9	2.402214250E-7	5.779766354E-8	2.275708955E-9	1.445309705E-10	2.840831276E-14	4.151737357E-6	105.558939990	4.156248025	2.000000000	4835.000000000	159.000000000	340.030000000	109.904000000	15.781000000	27.689000000	28.918000000	33.394000000	4.476000000	621.200000000	629.100000000	297.300000000	15.034271240	15.114257812	15.117187500	45.915405273	99.227388732
268.000000000	42911.281234375	8.957573724E-13	3.374492019E-9	2.401481822E-7	5.781577883E-8	2.279731293E-9	1.456284676E-10	1.581644294E-13	4.151737357E-6	105.340564919	4.153678928	2.000000000	4835.000000000	159.000000000	340.030000000	109.904000000	15.781000000	27.689000000	28.918000000	33.394000000	4.476000000	621.200000000	629.100000000	297.300000000	15.034271240	15.114257812	15.117187500	45.915405273	99.227388732
269.000000000	42911.281240150	9.384812805E-13	3.367522927E-9	2.403705253E-7	5.785646451E-8	2.282774192E-9	1.448046821E-10	1.363594025E-13	4.151737357E-6	105.297548095	4.154600999	2.000000000	4835.000000000	159.000000000	340.030000000	109.904000000	15.781000000	27.689000000	28.918000000	33.394000000	4.476000000	621.200000000	629.100000000	297.300000000	15.033966064	15.114440918	15.117736816	45.916412354	100.417045171
270.000000000	42911.281245891	8.849870706E-13	3.374917901E-9	2.403201336E-7	5.780342605E-8	2.281845157E-9	1.451474357E-10	1.728268814E-13	4.132327376E-6	105.318335385	4.157541343	2.000000000	4835.000000000	159.000000000	340.030000000	109.904000000	15.781000000	27.689000000	28.918000000	33.394000000	4.476000000	621.200000000	629.100000000	297.300000000	15.033966064	15.114440918	15.117736816	45.916412354	100.417045171
271.000000000	42911.281251655	9.210539232E-13	3.374314161E-9	2.402968278E-7	5.782376533E-8	2.282664058E-9	1.448922649E-10	1.629685427E-13	4.151737357E-6	105.270342761	4.155675895	2.000000000	4835.000000000	159.000000000	340.030000000	109.904000000	15.781000000	27.689000000	28.918000000	33.394000000	4.476000000	621.200000000	629.100000000	297.300000000	15.034423828	15.113861084	15.118896484	45.914093018	99.042239676
272.000000000	42911.281257465	8.410017339E-14	3.378421098E-9	2.400005314E-7	5.777532408E-8	2.277214195E-9	1.434238978E-10	-3.156157790E-13	4.151737357E-6	105.392163801	4.154031765	2.000000000	4835.000000000	159.000000000	340.030000000	109.904000000	15.781000000	27.689000000	28.918000000	33.394000000	4.476000000	621.200000000	629.100000000	297.300000000	15.034423828	15.113861084	15.118896484	45.914093018	99.042239676
273.000000000	42911.281263252	-2.582057831E-13	3.377112812E-9	2.399119126E-7	5.775509848E-8	2.273932376E-9	1.457238913E-10	-5.557858861E-13	4.151737357E-6	105.505297835	4.153952099	2.000000000	4835.000000000	159.000000000	340.030000000	109.904000000	15.781000000	27.689000000	28.918000000	33.394000000	4.476000000	621.200000000	629.100000000	297.300000000	15.033905029	15.113616943	15.117614746	45.912902832	99.442208738
274.000000000	42911.281268981	8.688192310E-13	3.378445745E-9	2.396946002E-7	5.769420852E-8	2.275897248E-9	1.448996340E-10	1.650623404E-13	4.151737357E-6	105.318726640	4.154569519	2.000000000	4835.000000000	159.000000000	340.030000000	109.904000000	15.781000000	27.689000000	28.918000000	33.394000000	4.476000000	621.200000000	629.100000000	297.300000000	15.033905029	15.113616943	15.117614746	45.912902832	99.442208738
275.000000000	42911.281274722	8.991025155E-13	3.373851643E-9	2.401712038E-7	5.783000034E-8	2.277491529E-9	1.442335418E-10	1.494292971E-13	4.151737357E-6	105.454268781	4.153055549	2.000000000	4835.000000000	159.000000000	340.030000000	109.904000000	15.781000000	27.689000000	28.918000000	33.394000000	4.476000000	621.200000000	629.100000000	297.300000000	15.033416748	15.113983154	15.117401123	45.913513184	98.817814808
276.000000000	42911.281280451	9.076509076E-13	3.375381974E-9	2.403225778E-7	5.784361434E-8	2.269759936E-9	1.444454278E-10	1.613996886E-13	4.151737357E-6	105.880174407	4.154695044	2.000000000	4835.000000000	159.000000000	340.030000000	109.904000000	15.781000000	27.689000000	28.918000000	33.394000000	4.476000000	621.200000000	629.100000000	297.300000000	15.033416748	15.113983154	15.117401123	45.913513184	98.817814808
277.000000000	42911.281286157	9.107105261E-13	3.374637014E-9	2.400760195E-7	5.772912814E-8	2.276026256E-9	1.455914972E-10	1.312783026E-13	4.151737357E-6	105.480338304	4.158663524	2.000000000	4835.000000000	159.000000000	340.030000000	109.904000000	15.781000000	27.689000000	28.918000000	33.394000000	4.476000000	621.200000000	629.100000000	297.300000000	15.033233643	15.114227295	15.117095947	45.916259766	98.521961679
278.000000000	42911.281291968	7.656847162E-13	3.371224633E-9	2.395135823E-7	5.762284161E-8	2.271478339E-9	1.435440794E-10	1.560554393E-13	4.132327376E-6	105.443920910	4.156573602	2.000000000	4835.000000000	159.000000000	340.030000000	109.904000000	15.781000000	27.689000000	28.918000000	33.394000000	4.476000000	621.200000000	629.100000000	297.300000000	15.033233643	15.114227295	15.117095947	45.916259766	98.521961679
279.000000000	42911.281297789	1.477216380E-13	3.372084834E-9	2.397125911E-7	5.768950118E-8	2.273944588E-9	1.440517289E-10	1.435814494E-13	4.151737357E-6	105.417076720	4.155220382	2.000000000	4835.000000000	159.000000000	340.030000000	109.904000000	15.781000000	27.689000000	28.918000000	33.394000000	4.476000000	621.200000000	629.100000000	297.300000000	15.033233643	15.114227295	15.117095947	45.916259766	98.521961679
280.000000000	42911.281303530	8.706018762E-13	3.371930068E-9	2.399591494E-7	5.780068335E-8	2.270736710E-9	1.438219405E-10	1.084269173E-14	4.151737357E-6	105.674580592	4.151493296	2.000000000	4835.000000000	159.000000000	340.030000000	109.904000000	15.781000000	27.689000000	28.918000000	33.394000000	4.476000000	621.200000000	629.100000000	297.300000000	15.033660889	15.112976074	15.117034912	45.913208008	99.471461238
