QMG 220  (h6 Triton.vi)	Device:	EIMS  (PTM28611-44508749)																										
MID	ParaFile:	Duke ratios.rcp																										
																												
																												
																												
	UTC offset (s)	25200																										
All masses (amu) are displayed in (A)																												
																												
cycle #	time	18.03	28.06	32.03	40.06	44.12	45.12	TP	N2/Ar	O2/Ar	N2/O2	ID	S#	O2 (uM)	O2 Sat (%)	Temp (C)	Calphase (C)	TCphase (C)	C1 (C)	C2 (C)	C1amp (mV)	C2amp (mV)	Temp (mV)	inlet	sock	outlet	MS	flow
0.000000000	42897.560088657	6.705335398E-9	4.193120731E-7	1.189650121E-7	4.491215844E-9	2.663129717E-10	3.742992027E-12	3.607284498E-6	93.362707930	26.488375577	3.524667176	4835.000000000	159.000000000	375.970000000	115.162000000	13.315000000	27.646000000	28.879000000	33.303000000	4.424000000	642.200000000	659.400000000	378.600000000	12.605468750	12.844665527	13.581237793	46.188781738	98.930251063
1.000000000	42897.560103796	8.362437853E-9	4.585947408E-7	1.232623674E-7	4.542646259E-9	2.696976253E-10	2.930830491E-12	3.624224291E-6	100.953214203	27.134485142	3.720476496	4835.000000000	159.000000000	375.970000000	115.162000000	13.315000000	27.646000000	28.879000000	33.303000000	4.424000000	642.200000000	659.400000000	378.600000000	12.604980469	12.840515137	13.582458496	46.194824219	98.881672061
2.000000000	42897.560118819	8.688035180E-9	4.694957170E-7	1.248390902E-7	4.561797606E-9	2.698073986E-10	3.981610614E-12	3.624224291E-6	102.919015153	27.366205376	3.760806942	4835.000000000	159.000000000	375.970000000	115.162000000	13.315000000	27.646000000	28.879000000	33.303000000	4.424000000	642.200000000	659.400000000	378.600000000	12.605407715	12.834625244	13.582519531	46.193023682	100.115488075
3.000000000	42897.560133646	8.795833395E-9	4.725905285E-7	1.249758554E-7	4.542256349E-9	2.710629499E-10	3.355460874E-12	3.624224291E-6	104.043121347	27.514047171	3.781454640	4835.000000000	159.000000000	375.970000000	115.162000000	13.315000000	27.646000000	28.879000000	33.303000000	4.424000000	642.200000000	659.400000000	378.600000000	12.605377197	12.827819824	13.580383301	46.192016602	101.142440766
4.000000000	42897.560148519	8.864967427E-9	4.729685372E-7	1.249484427E-7	4.529657094E-9	2.680909106E-10	3.555818400E-12	3.624224291E-6	104.415969559	27.584525741	3.785309580	4835.000000000	159.000000000	375.970000000	115.162000000	13.315000000	27.646000000	28.879000000	33.303000000	4.424000000	642.200000000	659.400000000	378.600000000	12.605346680	12.826629639	13.580810547	46.195678711	100.911127626
5.000000000	42897.560163542	8.878665803E-9	4.738615473E-7	1.249432273E-7	4.526329089E-9	2.692761014E-10	3.491871072E-12	3.624224291E-6	104.690034238	27.603655159	3.792614914	4835.000000000	159.000000000	375.970000000	115.162000000	13.315000000	27.646000000	28.879000000	33.303000000	4.424000000	642.200000000	659.400000000	378.600000000	12.604980469	12.830596924	13.579559326	46.197296143	99.230084322
6.000000000	42897.560178600	8.921133166E-9	4.731468266E-7	1.245894339E-7	4.508923457E-9	2.669909571E-10	3.195476219E-12	3.607284498E-6	104.935652853	27.631747372	3.797648098	4835.000000000	159.000000000	375.970000000	115.162000000	13.315000000	27.646000000	28.879000000	33.303000000	4.424000000	642.200000000	659.400000000	378.600000000	12.605194092	12.834655762	13.582122803	46.194824219	101.796716004
7.000000000	42897.560193472	8.896296144E-9	4.729153318E-7	1.245366690E-7	4.508937224E-9	2.660957843E-10	3.316343727E-12	3.624224291E-6	104.883991134	27.619960714	3.797398274	4835.000000000	159.000000000	375.970000000	115.162000000	13.315000000	27.646000000	28.879000000	33.303000000	4.424000000	642.200000000	659.400000000	378.600000000	12.605285645	12.841094971	13.583221436	46.192596436	101.215125450
8.000000000	42897.560208356	8.887200309E-9	4.717440731E-7	1.239710627E-7	4.480281035E-9	2.651559528E-10	3.364135793E-12	3.624224291E-6	105.293411160	27.670376429	3.805275704	4835.000000000	159.000000000	375.970000000	115.162000000	13.315000000	27.646000000	28.879000000	33.303000000	4.424000000	642.200000000	659.400000000	378.600000000	12.603576660	12.858642578	13.579956055	46.193634033	101.450830015
9.000000000	42897.560223252	8.852362399E-9	4.705842684E-7	1.236982712E-7	4.469514980E-9	2.643849584E-10	3.490076934E-12	3.607284498E-6	105.287546973	27.675994314	3.804291393	4835.000000000	159.000000000	376.133000000	115.209000000	13.314000000	27.641000000	28.875000000	33.294000000	4.419000000	642.200000000	659.400000000	378.600000000	12.604644775	12.860565186	13.580383301	46.191711426	101.451046759
10.000000000	42897.560238125	8.854343037E-9	4.700056024E-7	1.234436979E-7	4.462703096E-9	2.646441122E-10	3.783124421E-12	3.624224291E-6	105.318591072	27.661194410	3.807449147	4835.000000000	159.000000000	376.133000000	115.209000000	13.314000000	27.641000000	28.875000000	33.294000000	4.419000000	642.200000000	659.400000000	378.600000000	12.603942871	12.855560303	13.580535889	46.192016602	102.012555496
11.000000000	42897.560253206	8.829663223E-9	4.684239343E-7	1.230029767E-7	4.438827528E-9	2.622076722E-10	3.321911322E-12	3.607284498E-6	105.528753117	27.710690700	3.808232507	4835.000000000	159.000000000	376.133000000	115.209000000	13.314000000	27.641000000	28.875000000	33.294000000	4.419000000	642.200000000	659.400000000	378.600000000	12.604858398	12.848327637	13.576904297	46.195251465	99.735006216
12.000000000	42897.560268194	8.809389662E-9	4.686589818E-7	1.229874442E-7	4.447760826E-9	2.638412544E-10	3.391302647E-12	3.624224291E-6	105.369645569	27.651541760	3.810624611	4835.000000000	159.000000000	376.133000000	115.209000000	13.314000000	27.641000000	28.875000000	33.294000000	4.419000000	642.200000000	659.400000000	378.600000000	12.604675293	12.845428467	13.575958252	46.196990967	100.731079192
13.000000000	42897.560283102	8.810030927E-9	4.678123275E-7	1.226721338E-7	4.434521639E-9	2.621218520E-10	3.313942220E-12	3.624224291E-6	105.493301341	27.662991361	3.813517489	4835.000000000	159.000000000	376.133000000	115.209000000	13.314000000	27.641000000	28.875000000	33.294000000	4.419000000	642.200000000	659.400000000	378.600000000	12.604248047	12.853240967	13.578552246	46.196441650	99.742460445
14.000000000	42897.560297998	8.827987230E-9	4.676431615E-7	1.226623425E-7	4.426757183E-9	2.622739526E-10	3.310396011E-12	3.624224291E-6	105.640120339	27.709299931	3.812442776	4835.000000000	159.000000000	376.133000000	115.209000000	13.314000000	27.641000000	28.875000000	33.294000000	4.419000000	642.200000000	659.400000000	378.600000000	12.604461670	12.853240967	13.579010010	46.195373535	99.818053732
15.000000000	42897.560312824	8.829966092E-9	4.661384878E-7	1.221813335E-7	4.411430776E-9	2.614967964E-10	3.663883866E-12	3.607284498E-6	105.666055177	27.696531963	3.815136686	4835.000000000	159.000000000	376.133000000	115.209000000	13.314000000	27.641000000	28.875000000	33.294000000	4.419000000	642.200000000	659.400000000	378.600000000	12.604064941	12.853576660	13.577148437	46.194824219	98.377470289
16.000000000	42897.560327951	8.808541452E-9	4.650634082E-7	1.220705172E-7	4.417586297E-9	2.609241989E-10	3.403477370E-12	3.624224291E-6	105.275455189	27.632854018	3.809793050	4835.000000000	159.000000000	376.133000000	115.209000000	13.314000000	27.641000000	28.875000000	33.294000000	4.419000000	642.200000000	659.400000000	378.600000000	12.604095459	12.848663330	13.577545166	46.199645996	98.940897183
17.000000000	42897.560342836	8.778100025E-9	4.647498315E-7	1.218255647E-7	4.397987752E-9	2.611032779E-10	3.279074278E-12	3.607284498E-6	105.673289181	27.700296505	3.814879352	4835.000000000	159.000000000	376.133000000	115.209000000	13.314000000	27.641000000	28.875000000	33.294000000	4.419000000	642.200000000	659.400000000	378.600000000	12.604675293	12.835998535	13.576599121	46.199096680	100.546790112
18.000000000	42897.560357720	8.805812968E-9	4.640318991E-7	1.216720591E-7	4.399903997E-9	2.601747706E-10	3.252938934E-12	3.607284498E-6	105.464096370	27.653344070	3.813791782	4835.000000000	159.000000000	376.133000000	115.209000000	13.314000000	27.641000000	28.875000000	33.294000000	4.419000000	642.200000000	659.400000000	378.600000000	12.603851318	12.830993652	13.576416016	46.196868896	100.077152629
19.000000000	42897.560372593	8.789456274E-9	4.644165870E-7	1.218551233E-7	4.406656373E-9	2.605463345E-10	3.409735168E-12	3.624224291E-6	105.389789364	27.652513154	3.811219211	4835.000000000	159.000000000	376.133000000	115.209000000	13.314000000	27.641000000	28.875000000	33.294000000	4.419000000	642.200000000	659.400000000	378.600000000	12.605377197	12.828369141	13.578247070	46.200073242	100.730881295
20.000000000	42897.560387546	8.770260074E-9	4.628695081E-7	1.212907392E-7	4.379520302E-9	2.600776539E-10	3.427451899E-12	3.607284498E-6	105.689545005	27.694982753	3.816198260	4835.000000000	159.000000000	376.133000000	115.209000000	13.314000000	27.641000000	28.875000000	33.294000000	4.419000000	642.200000000	659.400000000	378.600000000	12.603454590	12.826995850	13.577575684	46.194366455	98.444178834
21.000000000	42897.560402488	8.780140170E-9	4.615401394E-7	1.210254652E-7	4.383765795E-9	2.592623616E-10	2.551369706E-12	3.607284498E-6	105.283941032	27.607648508	3.813578726	4835.000000000	159.000000000	376.133000000	115.209000000	13.314000000	27.641000000	28.875000000	33.294000000	4.419000000	642.200000000	659.400000000	378.600000000	12.604736328	12.825561523	13.577697754	46.199218750	99.165468021
22.000000000	42897.560417454	8.722958356E-9	4.619911067E-7	1.210987222E-7	4.386558228E-9	2.597893289E-10	3.032247413E-12	3.607284498E-6	105.319725105	27.606774121	3.814995720	4835.000000000	159.000000000	376.133000000	115.209000000	13.314000000	27.641000000	28.875000000	33.294000000	4.419000000	642.200000000	659.400000000	378.600000000	12.603698730	12.826629639	13.581329346	46.202117920	99.421004081
23.000000000	42897.560432350	8.726297906E-9	4.617171214E-7	1.210112259E-7	4.384909769E-9	2.594338910E-10	3.456764605E-12	3.607284498E-6	105.296835235	27.597198646	3.815489992	4835.000000000	159.000000000	376.133000000	115.209000000	13.314000000	27.641000000	28.875000000	33.294000000	4.419000000	642.200000000	659.400000000	378.600000000	12.604034424	12.827423096	13.583557129	46.200073242	100.292228804
24.000000000	42897.560447384	8.726308565E-9	4.618861738E-7	1.210148213E-7	4.378987839E-9	2.593140980E-10	3.521841889E-12	3.624224291E-6	105.477838883	27.635340797	3.816773589	4835.000000000	159.000000000	376.133000000	115.209000000	13.314000000	27.641000000	28.875000000	33.294000000	4.419000000	642.200000000	659.400000000	378.600000000	12.603698730	12.826538086	13.586517334	46.200073242	100.536480628
25.000000000	42897.560462431	8.731232626E-9	4.612379314E-7	1.208429694E-7	4.369598461E-9	2.582493941E-10	3.342671192E-12	3.624224291E-6	105.556136459	27.655394538	3.816837121	4835.000000000	159.000000000	376.133000000	115.209000000	13.314000000	27.641000000	28.875000000	33.294000000	4.419000000	642.200000000	659.400000000	378.600000000	12.603759766	12.828887939	13.587158203	46.199218750	100.796083594
26.000000000	42897.560477361	8.730355106E-9	4.606519326E-7	1.207257867E-7	4.368813755E-9	2.585547887E-10	3.269835574E-12	3.607284498E-6	105.440963706	27.633539323	3.815687975	4835.000000000	159.000000000	376.133000000	115.209000000	13.314000000	27.641000000	28.875000000	33.294000000	4.419000000	642.200000000	659.400000000	378.600000000	12.603881836	12.836303711	13.588470459	46.198791504	99.695749867
27.000000000	42897.560492234	8.739215573E-9	4.604267758E-7	1.206772424E-7	4.365450224E-9	2.573676272E-10	3.192821441E-12	3.607284498E-6	105.470627825	27.643710555	3.815357118	4835.000000000	159.000000000	376.133000000	115.209000000	13.314000000	27.641000000	28.875000000	33.294000000	4.419000000	642.200000000	659.400000000	378.600000000	12.603790283	12.838134766	13.595672607	46.203735352	99.538685546
28.000000000	42897.560507118	8.745512758E-9	4.593505025E-7	1.204462166E-7	4.359982597E-9	2.573505020E-10	3.185742685E-12	3.641247531E-6	105.356040371	27.625389293	3.813739573	4835.000000000	159.000000000	376.133000000	115.209000000	13.314000000	27.641000000	28.875000000	33.294000000	4.419000000	642.200000000	659.400000000	378.600000000	12.603881836	12.844207764	13.696960449	46.199645996	100.104556630
29.000000000	42897.560521991	8.696113163E-9	4.612031148E-7	1.208649962E-7	4.372178619E-9	2.590087311E-10	3.543331427E-12	3.624224291E-6	105.485881293	27.644112183	3.815853466	4835.000000000	159.000000000	376.133000000	115.209000000	13.314000000	27.641000000	28.875000000	33.294000000	4.419000000	642.200000000	659.400000000	378.600000000	12.604370117	12.855194092	13.276641846	46.199493408	100.441000113
30.000000000	42897.560536979	8.705193011E-9	4.611183044E-7	1.207975657E-7	4.361182970E-9	2.576184543E-10	3.477584757E-12	3.607284498E-6	105.732391319	27.698348487	3.817281430	4835.000000000	159.000000000	376.133000000	115.209000000	13.314000000	27.641000000	28.875000000	33.294000000	4.419000000	642.200000000	659.400000000	378.600000000	12.603820801	12.856414795	13.114624023	46.201110840	99.476618864
31.000000000	42897.560551910	8.700445697E-9	4.589793150E-7	1.203232216E-7	4.360729999E-9	2.578482983E-10	2.602445386E-12	3.624224291E-6	105.252862496	27.592449344	3.814553075	4835.000000000	159.000000000	376.133000000	115.209000000	13.314000000	27.641000000	28.875000000	33.294000000	4.419000000	642.200000000	659.400000000	378.600000000	12.604461670	12.857391357	13.017089844	46.203613281	98.443205697
32.000000000	42897.560566794	8.673118224E-9	4.587326146E-7	1.202981963E-7	4.351969007E-9	2.558667445E-10	3.571223395E-12	3.607284498E-6	105.408060991	27.642245634	3.813295866	4835.000000000	159.000000000	376.478000000	115.313000000	13.313000000	27.632000000	28.866000000	33.286000000	4.419000000	642.000000000	659.300000000	378.700000000	12.602752686	12.857391357	13.004669189	46.196563721	98.886177686
33.000000000	42897.560581725	8.642919269E-9	4.581461326E-7	1.200860567E-7	4.341340620E-9	2.577453806E-10	3.680748414E-12	3.607284498E-6	105.531026624	27.661053844	3.815148447	4835.000000000	159.000000000	376.478000000	115.313000000	13.313000000	27.632000000	28.866000000	33.286000000	4.419000000	642.000000000	659.300000000	378.700000000	12.604034424	12.857574463	12.958770752	46.202117920	99.704887624
34.000000000	42897.560596759	8.658048500E-9	4.576530728E-7	1.198741444E-7	4.335438675E-9	2.555634870E-10	3.177905205E-12	3.607284498E-6	105.560960979	27.649830474	3.817779681	4835.000000000	159.000000000	376.478000000	115.313000000	13.313000000	27.632000000	28.866000000	33.286000000	4.419000000	642.000000000	659.300000000	378.700000000	12.604064941	12.855499268	12.897247314	46.203033447	100.623470427
35.000000000	42897.560611655	8.630190784E-9	4.558936268E-7	1.194035661E-7	4.323235103E-9	2.549636335E-10	3.812244357E-12	3.607284498E-6	105.451962700	27.619031418	3.818090544	4835.000000000	159.000000000	376.478000000	115.313000000	13.313000000	27.632000000	28.866000000	33.286000000	4.419000000	642.000000000	659.300000000	378.700000000	12.603851318	12.854339600	12.862091064	46.208618164	99.987963462
36.000000000	42897.560626736	8.597682566E-9	4.558949342E-7	1.195025163E-7	4.328111647E-9	2.559049084E-10	3.297607630E-12	3.624224291E-6	105.333450578	27.610774878	3.814940039	4835.000000000	159.000000000	376.478000000	115.313000000	13.313000000	27.632000000	28.866000000	33.286000000	4.419000000	642.000000000	659.300000000	378.700000000	12.604339600	12.853363037	12.831237793	46.198791504	99.329237257
37.000000000	42897.560641655	8.601682921E-9	4.564009259E-7	1.196456338E-7	4.324317349E-9	2.562567103E-10	3.240255720E-12	3.607284498E-6	105.542884378	27.668097459	3.814605776	4835.000000000	159.000000000	376.478000000	115.313000000	13.313000000	27.632000000	28.866000000	33.286000000	4.419000000	642.000000000	659.300000000	378.700000000	12.603668213	12.856323242	12.798675537	46.204681396	100.329018770
38.000000000	42897.560656539	8.688163078E-9	4.568118470E-7	1.197103785E-7	4.331787817E-9	2.566175605E-10	3.188542529E-12	3.607284498E-6	105.455730123	27.635328309	3.815975296	4835.000000000	159.000000000	376.478000000	115.313000000	13.313000000	27.632000000	28.866000000	33.286000000	4.419000000	642.000000000	659.300000000	378.700000000	12.602966309	12.855285645	12.790740967	46.205200195	101.472692904
39.000000000	42897.560671412	8.731418255E-9	4.545836987E-7	1.191893162E-7	4.311633273E-9	2.556294343E-10	3.423277503E-12	3.624224291E-6	105.431902469	27.643658136	3.813963476	4835.000000000	159.000000000	376.478000000	115.313000000	13.313000000	27.632000000	28.866000000	33.286000000	4.419000000	642.000000000	659.300000000	378.700000000	12.603149414	12.850708008	12.786041260	46.204925537	100.582006326
40.000000000	42897.560686470	8.689879039E-9	4.562642459E-7	1.196150663E-7	4.325908964E-9	2.566956092E-10	3.371357013E-12	3.607284498E-6	105.472456702	27.650851481	3.814437931	4835.000000000	159.000000000	376.478000000	115.313000000	13.313000000	27.632000000	28.866000000	33.286000000	4.419000000	642.000000000	659.300000000	378.700000000	12.603057861	12.845001221	12.783782959	46.199951172	100.101296044
41.000000000	42897.560701366	8.697651488E-9	4.550422261E-7	1.192510553E-7	4.314486990E-9	2.545218203E-10	3.258956039E-12	3.607284498E-6	105.468443221	27.639683590	3.815833958	4835.000000000	159.000000000	376.478000000	115.313000000	13.313000000	27.632000000	28.866000000	33.286000000	4.419000000	642.000000000	659.300000000	378.700000000	12.603424072	12.841186523	12.778961182	46.202728271	98.911372204
42.000000000	42897.560716238	8.735441703E-9	4.555658677E-7	1.194466250E-7	4.317105340E-9	2.557455914E-10	3.315340840E-12	3.624224291E-6	105.525770587	27.668221095	3.813970194	4835.000000000	159.000000000	376.478000000	115.313000000	13.313000000	27.632000000	28.866000000	33.286000000	4.419000000	642.000000000	659.300000000	378.700000000	12.602935791	12.839447021	12.778015137	46.208770752	99.137227584
43.000000000	42897.560731134	8.790938644E-9	4.556898432E-7	1.194338068E-7	4.322785241E-9	2.566548085E-10	3.209574750E-12	3.607284498E-6	105.415795095	27.628901319	3.815417554	4835.000000000	159.000000000	376.478000000	115.313000000	13.313000000	27.632000000	28.866000000	33.286000000	4.419000000	642.000000000	659.300000000	378.700000000	12.602600098	12.838714600	12.776794434	46.201873779	100.041389842
44.000000000	42897.560746007	8.791428918E-9	4.544164369E-7	1.190712453E-7	4.303368772E-9	2.549025990E-10	3.211597438E-12	3.607284498E-6	105.595513876	27.669310162	3.816340677	4835.000000000	159.000000000	376.478000000	115.313000000	13.313000000	27.632000000	28.866000000	33.286000000	4.419000000	642.000000000	659.300000000	378.700000000	12.601928711	12.836456299	12.776092529	46.200683594	100.956606205
45.000000000	42897.560760880	8.725440814E-9	4.540904683E-7	1.189754357E-7	4.304958612E-9	2.553857681E-10	3.326809097E-12	3.624224291E-6	105.480797676	27.636836136	3.816674136	4835.000000000	159.000000000	376.478000000	115.313000000	13.313000000	27.632000000	28.866000000	33.286000000	4.419000000	642.000000000	659.300000000	378.700000000	12.603302002	12.838867187	12.775054932	46.206268311	100.421304665
46.000000000	42897.560775775	8.687707442E-9	4.538000553E-7	1.188847776E-7	4.306858870E-9	2.550840372E-10	3.201341536E-12	3.607284498E-6	105.366827439	27.603592590	3.817141812	4835.000000000	159.000000000	376.478000000	115.313000000	13.313000000	27.632000000	28.866000000	33.286000000	4.419000000	642.000000000	659.300000000	378.700000000	12.603576660	12.846984863	12.772705078	46.205841064	99.323661181
47.000000000	42897.560790660	8.707984556E-9	4.537077700E-7	1.190248184E-7	4.310398261E-9	2.552835721E-10	3.282364614E-12	3.641247531E-6	105.258897809	27.613415571	3.811875338	4835.000000000	159.000000000	376.478000000	115.313000000	13.313000000	27.632000000	28.866000000	33.286000000	4.419000000	642.000000000	659.300000000	378.700000000	12.603088379	12.851074219	12.772430420	46.204681396	99.192735322
48.000000000	42897.560805532	8.734860835E-9	4.542522163E-7	1.190498296E-7	4.304911982E-9	2.542855371E-10	3.186374125E-12	3.624224291E-6	105.519513091	27.654416637	3.815647767	4835.000000000	159.000000000	376.478000000	115.313000000	13.313000000	27.632000000	28.866000000	33.286000000	4.419000000	642.000000000	659.300000000	378.700000000	12.602691650	12.856018066	12.772491455	46.207855225	99.588802104
49.000000000	42897.560820359	8.684310160E-9	4.535009168E-7	1.188346843E-7	4.299218315E-9	2.554227385E-10	3.394641339E-12	3.607284498E-6	105.484505234	27.640997878	3.816233614	4835.000000000	159.000000000	376.478000000	115.313000000	13.313000000	27.632000000	28.866000000	33.286000000	4.419000000	642.000000000	659.300000000	378.700000000	12.602539062	12.860565186	12.771820068	46.205108643	100.546677028
50.000000000	42897.560835255	8.637351279E-9	4.531021602E-7	1.187468115E-7	4.294824940E-9	2.535458787E-10	3.226302038E-12	3.607284498E-6	105.499564372	27.648812967	3.815699593	4835.000000000	159.000000000	376.478000000	115.313000000	13.313000000	27.632000000	28.866000000	33.286000000	4.419000000	642.000000000	659.300000000	378.700000000	12.602081299	12.869323730	12.772430420	46.206542969	101.356320136
51.000000000	42897.560850127	8.616297009E-9	4.518258834E-7	1.184779279E-7	4.288581046E-9	2.532342669E-10	3.184482842E-12	3.624224291E-6	105.355565989	27.626370272	3.813586981	4835.000000000	159.000000000	376.478000000	115.313000000	13.313000000	27.632000000	28.866000000	33.286000000	4.419000000	642.000000000	659.300000000	378.700000000	12.602355957	12.876007080	12.771575928	46.207427979	102.170580838
52.000000000	42897.560865012	8.626333425E-9	4.538348151E-7	1.189870673E-7	4.301545786E-9	2.540661848E-10	3.187708127E-12	3.624224291E-6	105.505052745	27.661467115	3.814152456	4835.000000000	159.000000000	376.478000000	115.313000000	13.313000000	27.632000000	28.866000000	33.286000000	4.419000000	642.000000000	659.300000000	378.700000000	12.602996826	12.880187988	12.768524170	46.204040527	101.488703701
53.000000000	42897.560879884	8.617215386E-9	4.525418262E-7	1.186286696E-7	4.294075762E-9	2.549007394E-10	3.246353490E-12	3.624224291E-6	105.387480649	27.626124023	3.814776208	4835.000000000	159.000000000	376.478000000	115.313000000	13.313000000	27.632000000	28.866000000	33.286000000	4.419000000	642.000000000	659.300000000	378.700000000	12.602233887	12.882446289	12.767730713	46.207427979	101.999748743
54.000000000	42897.560894769	8.576789057E-9	4.531253524E-7	1.187150716E-7	4.294707256E-9	2.548562750E-10	3.226347575E-12	3.607284498E-6	105.507855434	27.642180121	3.816915127	4835.000000000	159.000000000	376.478000000	115.313000000	13.313000000	27.632000000	28.866000000	33.286000000	4.419000000	642.000000000	659.300000000	378.700000000	12.602752686	12.882080078	12.767913818	46.211273193	99.745097647
55.000000000	42897.560909641	8.581877431E-9	4.525888073E-7	1.186096981E-7	4.296391687E-9	2.547134725E-10	3.146146321E-12	3.624224291E-6	105.341607634	27.606816768	3.815782476	4835.000000000	159.000000000	376.422000000	115.292000000	13.312000000	27.634000000	28.868000000	33.291000000	4.423000000	642.000000000	659.400000000	378.700000000	12.601104736	12.874450684	12.765838623	46.203460693	98.645579280
56.000000000	42897.560924514	8.568624033E-9	4.527316548E-7	1.185966312E-7	4.283506883E-9	2.534102095E-10	3.250814114E-12	3.607284498E-6	105.691823837	27.686807664	3.817407378	4835.000000000	159.000000000	376.422000000	115.292000000	13.312000000	27.634000000	28.868000000	33.291000000	4.423000000	642.000000000	659.400000000	378.700000000	12.602752686	12.868591309	12.767242432	46.208312988	99.470283742
57.000000000	42897.560939340	8.582995648E-9	4.505897948E-7	1.181617009E-7	4.273576160E-9	2.542195621E-10	3.102696268E-12	3.607284498E-6	105.436238405	27.649372903	3.813331998	4835.000000000	159.000000000	376.422000000	115.292000000	13.312000000	27.634000000	28.868000000	33.291000000	4.423000000	642.000000000	659.400000000	378.700000000	12.602081299	12.863677979	12.766693115	46.209045410	98.681361529
58.000000000	42897.560954225	8.622744296E-9	4.508087272E-7	1.182132650E-7	4.277842081E-9	2.535192334E-10	3.168102282E-12	3.607284498E-6	105.382274228	27.633854342	3.813520652	4835.000000000	159.000000000	376.422000000	115.292000000	13.312000000	27.634000000	28.868000000	33.291000000	4.423000000	642.000000000	659.400000000	378.700000000	12.602203369	12.860076904	12.767333984	46.210235596	97.689073134
59.000000000	42897.560969120	8.617995206E-9	4.514979253E-7	1.183228733E-7	4.276435206E-9	2.524823406E-10	3.161625258E-12	3.624224291E-6	105.578105016	27.668576181	3.815812723	4835.000000000	159.000000000	376.422000000	115.292000000	13.312000000	27.634000000	28.868000000	33.291000000	4.423000000	642.000000000	659.400000000	378.700000000	12.602691650	12.852844238	12.766540527	46.210968018	99.471101177
60.000000000	42897.560984005	8.619743141E-9	4.513552483E-7	1.183457599E-7	4.282662669E-9	2.532357102E-10	3.227404888E-12	3.624224291E-6	105.391267811	27.633687032	3.813869198	4835.000000000	159.000000000	376.422000000	115.292000000	13.312000000	27.634000000	28.868000000	33.291000000	4.423000000	642.000000000	659.400000000	378.700000000	12.602142334	12.848022461	12.764801025	46.206390381	98.633950292
61.000000000	42897.560998889	8.625343995E-9	4.514234888E-7	1.182383187E-7	4.282828758E-9	2.521554632E-10	3.113644542E-12	3.624224291E-6	105.403114224	27.607528894	3.817911941	4835.000000000	159.000000000	376.422000000	115.292000000	13.312000000	27.634000000	28.868000000	33.291000000	4.423000000	642.000000000	659.400000000	378.700000000	12.601806641	12.843322754	12.764556885	46.208892822	100.524324108
62.000000000	42897.561013762	8.607363711E-9	4.504083506E-7	1.179947517E-7	4.268461584E-9	2.530344823E-10	3.271743987E-12	3.607284498E-6	105.520066594	27.643390814	3.817189697	4835.000000000	159.000000000	376.422000000	115.292000000	13.312000000	27.634000000	28.868000000	33.291000000	4.423000000	642.000000000	659.400000000	378.700000000	12.601928711	12.840637207	12.765869141	46.213592529	98.781808736
63.000000000	42897.561028646	8.634523319E-9	4.493707877E-7	1.178039781E-7	4.263448705E-9	2.530849141E-10	3.231438337E-12	3.624224291E-6	105.400772653	27.631147053	3.814563776	4835.000000000	159.000000000	376.422000000	115.292000000	13.312000000	27.634000000	28.868000000	33.291000000	4.423000000	642.000000000	659.400000000	378.700000000	12.602569580	12.830657959	12.766845703	46.209320068	99.452884051
64.000000000	42897.561043542	8.597500489E-9	4.510060307E-7	1.183411484E-7	4.288476241E-9	2.529531307E-10	3.605318735E-12	3.641247531E-6	105.166965006	27.595150770	3.811066875	4835.000000000	159.000000000	376.422000000	115.292000000	13.312000000	27.634000000	28.868000000	33.291000000	4.423000000	642.000000000	659.400000000	378.700000000	12.601776123	12.827606201	12.767517090	46.207000732	100.229881875
65.000000000	42897.561058588	8.634502890E-9	4.515883347E-7	1.183716805E-7	4.281486721E-9	2.510890940E-10	3.474007323E-12	3.624224291E-6	105.474654994	27.647330981	3.815003158	4835.000000000	159.000000000	376.422000000	115.292000000	13.312000000	27.634000000	28.868000000	33.291000000	4.423000000	642.000000000	659.400000000	378.700000000	12.602752686	12.828552246	12.766723633	46.208160400	101.205437928
66.000000000	42897.561073495	8.620389735E-9	4.505928359E-7	1.181684084E-7	4.283462918E-9	2.532189181E-10	3.312562681E-12	3.624224291E-6	105.193588596	27.587120669	3.813141279	4835.000000000	159.000000000	376.422000000	115.292000000	13.312000000	27.634000000	28.868000000	33.291000000	4.423000000	642.000000000	659.400000000	378.700000000	12.601867676	12.831420898	12.764221191	46.212890625	99.881521731
67.000000000	42897.561088368	8.640746785E-9	4.491137418E-7	1.177572813E-7	4.264887110E-9	2.528370846E-10	3.196169891E-12	3.607284498E-6	105.304954188	27.610878839	3.813893603	4835.000000000	159.000000000	376.422000000	115.292000000	13.312000000	27.634000000	28.868000000	33.291000000	4.423000000	642.000000000	659.400000000	378.700000000	12.603088379	12.833496094	12.764953613	46.216674805	99.270177569
68.000000000	42897.561103264	8.602358825E-9	4.487510523E-7	1.175695914E-7	4.254353314E-9	2.511937047E-10	3.226681942E-12	3.607284498E-6	105.480438315	27.635126356	3.816897269	4835.000000000	159.000000000	376.422000000	115.292000000	13.312000000	27.634000000	28.868000000	33.291000000	4.423000000	642.000000000	659.400000000	378.700000000	12.602203369	12.839660645	12.765625000	46.211547852	101.161297508
69.000000000	42897.561118148	8.545058883E-9	4.485740703E-7	1.175851949E-7	4.259141040E-9	2.522161091E-10	3.185533434E-12	3.607284498E-6	105.320313682	27.607725082	3.814885630	4835.000000000	159.000000000	376.422000000	115.292000000	13.312000000	27.634000000	28.868000000	33.291000000	4.423000000	642.000000000	659.400000000	378.700000000	12.602294922	12.849670410	12.765075684	46.210784912	101.051917095
70.000000000	42897.561133021	8.527284656E-9	4.489808134E-7	1.177530251E-7	4.262022735E-9	2.519838505E-10	3.077439128E-12	3.624224291E-6	105.344537409	27.628436646	3.812902582	4835.000000000	159.000000000	376.422000000	115.292000000	13.312000000	27.634000000	28.868000000	33.291000000	4.423000000	642.000000000	659.400000000	378.700000000	12.602783203	12.856567383	12.764282227	46.212585449	101.459047446
71.000000000	42897.561147894	8.547826447E-9	4.489933474E-7	1.177243405E-7	4.254499419E-9	2.514722874E-10	3.184399142E-12	3.607284498E-6	105.533766285	27.670550373	3.813938099	4835.000000000	159.000000000	376.422000000	115.292000000	13.312000000	27.634000000	28.868000000	33.291000000	4.423000000	642.000000000	659.400000000	378.700000000	12.602569580	12.866363525	12.762969971	46.209320068	100.584776882
72.000000000	42897.561162778	8.576154897E-9	4.492790708E-7	1.178702576E-7	4.263825293E-9	2.516932773E-10	3.316169821E-12	3.624224291E-6	105.369953030	27.644251220	3.811640698	4835.000000000	159.000000000	376.422000000	115.292000000	13.312000000	27.634000000	28.868000000	33.291000000	4.423000000	642.000000000	659.400000000	378.700000000	12.601562500	12.870758057	12.761474609	46.213165283	100.390234861
